#Collected Data-128
#Intensity_unit=counts
#Attenuator_coefficient=1.000000
20.0000 619.0000
20.0100 654.0000
20.0200 656.0000
20.0300 638.0000
20.0400 639.0000
20.0500 660.0000
20.0600 577.0000
20.0700 626.0000
20.0800 637.0000
20.0900 662.0000
20.1000 618.0000
20.1100 585.0000
20.1200 649.0000
20.1300 629.0000
20.1400 613.0000
20.1500 598.0000
20.1600 625.0000
20.1700 625.0000
20.1800 618.0000
20.1900 616.0000
20.2000 646.0000
20.2100 630.0000
20.2200 647.0000
20.2300 596.0000
20.2400 641.0000
20.2500 698.0000
20.2600 639.0000
20.2700 617.0000
20.2800 639.0000
20.2900 627.0000
20.3000 608.0000
20.3100 617.0000
20.3200 614.0000
20.3300 591.0000
20.3400 612.0000
20.3500 634.0000
20.3600 622.0000
20.3700 629.0000
20.3800 650.0000
20.3900 641.0000
20.4000 641.0000
20.4100 607.0000
20.4200 617.0000
20.4300 585.0000
20.4400 626.0000
20.4500 596.0000
20.4600 627.0000
20.4700 646.0000
20.4800 642.0000
20.4900 646.0000
20.5000 652.0000
20.5100 640.0000
20.5200 614.0000
20.5300 574.0000
20.5400 611.0000
20.5500 599.0000
20.5600 601.0000
20.5700 621.0000
20.5800 620.0000
20.5900 589.0000
20.6000 671.0000
20.6100 609.0000
20.6200 619.0000
20.6300 583.0000
20.6400 585.0000
20.6500 621.0000
20.6600 582.0000
20.6700 617.0000
20.6800 583.0000
20.6900 630.0000
20.7000 602.0000
20.7100 612.0000
20.7200 647.0000
20.7300 599.0000
20.7400 623.0000
20.7500 600.0000
20.7600 601.0000
20.7700 603.0000
20.7800 600.0000
20.7900 627.0000
20.8000 606.0000
20.8100 555.0000
20.8200 571.0000
20.8300 594.0000
20.8400 610.0000
20.8500 582.0000
20.8600 625.0000
20.8700 639.0000
20.8800 627.0000
20.8900 632.0000
20.9000 594.0000
20.9100 575.0000
20.9200 606.0000
20.9300 617.0000
20.9400 595.0000
20.9500 614.0000
20.9600 585.0000
20.9700 600.0000
20.9800 608.0000
20.9900 602.0000
21.0000 606.0000
21.0100 648.0000
21.0200 623.0000
21.0300 624.0000
21.0400 609.0000
21.0500 611.0000
21.0600 612.0000
21.0700 554.0000
21.0800 605.0000
21.0900 595.0000
21.1000 586.0000
21.1100 596.0000
21.1200 625.0000
21.1300 601.0000
21.1400 608.0000
21.1500 560.0000
21.1600 609.0000
21.1700 601.0000
21.1800 598.0000
21.1900 596.0000
21.2000 592.0000
21.2100 570.0000
21.2200 565.0000
21.2300 620.0000
21.2400 634.0000
21.2500 585.0000
21.2600 548.0000
21.2700 590.0000
21.2800 586.0000
21.2900 557.0000
21.3000 592.0000
21.3100 567.0000
21.3200 607.0000
21.3300 575.0000
21.3400 643.0000
21.3500 591.0000
21.3600 607.0000
21.3700 573.0000
21.3800 584.0000
21.3900 602.0000
21.4000 593.0000
21.4100 577.0000
21.4200 628.0000
21.4300 591.0000
21.4400 572.0000
21.4500 579.0000
21.4600 555.0000
21.4700 575.0000
21.4800 577.0000
21.4900 598.0000
21.5000 623.0000
21.5100 596.0000
21.5200 597.0000
21.5300 611.0000
21.5400 615.0000
21.5500 646.0000
21.5600 592.0000
21.5700 612.0000
21.5800 589.0000
21.5900 578.0000
21.6000 573.0000
21.6100 567.0000
21.6200 549.0000
21.6300 594.0000
21.6400 570.0000
21.6500 612.0000
21.6600 578.0000
21.6700 581.0000
21.6800 575.0000
21.6900 553.0000
21.7000 603.0000
21.7100 593.0000
21.7200 611.0000
21.7300 627.0000
21.7400 607.0000
21.7500 641.0000
21.7600 641.0000
21.7700 588.0000
21.7800 605.0000
21.7900 570.0000
21.8000 573.0000
21.8100 583.0000
21.8200 589.0000
21.8300 617.0000
21.8400 648.0000
21.8500 609.0000
21.8600 634.0000
21.8700 623.0000
21.8800 590.0000
21.8900 602.0000
21.9000 591.0000
21.9100 605.0000
21.9200 617.0000
21.9300 584.0000
21.9400 574.0000
21.9500 631.0000
21.9600 610.0000
21.9700 594.0000
21.9800 596.0000
21.9900 603.0000
22.0000 639.0000
22.0100 590.0000
22.0200 600.0000
22.0300 624.0000
22.0400 601.0000
22.0500 647.0000
22.0600 612.0000
22.0700 590.0000
22.0800 630.0000
22.0900 576.0000
22.1000 660.0000
22.1100 617.0000
22.1200 602.0000
22.1300 574.0000
22.1400 630.0000
22.1500 643.0000
22.1600 610.0000
22.1700 599.0000
22.1800 624.0000
22.1900 617.0000
22.2000 630.0000
22.2100 588.0000
22.2200 591.0000
22.2300 599.0000
22.2400 595.0000
22.2500 633.0000
22.2600 622.0000
22.2700 590.0000
22.2800 603.0000
22.2900 576.0000
22.3000 601.0000
22.3100 606.0000
22.3200 625.0000
22.3300 611.0000
22.3400 627.0000
22.3500 618.0000
22.3600 597.0000
22.3700 605.0000
22.3800 602.0000
22.3900 602.0000
22.4000 602.0000
22.4100 636.0000
22.4200 620.0000
22.4300 643.0000
22.4400 632.0000
22.4500 677.0000
22.4600 631.0000
22.4700 624.0000
22.4800 628.0000
22.4900 656.0000
22.5000 601.0000
22.5100 594.0000
22.5200 605.0000
22.5300 620.0000
22.5400 626.0000
22.5500 635.0000
22.5600 641.0000
22.5700 666.0000
22.5800 662.0000
22.5900 658.0000
22.6000 652.0000
22.6100 670.0000
22.6200 621.0000
22.6300 650.0000
22.6400 668.0000
22.6500 668.0000
22.6600 646.0000
22.6700 723.0000
22.6800 661.0000
22.6900 664.0000
22.7000 655.0000
22.7100 689.0000
22.7200 688.0000
22.7300 657.0000
22.7400 688.0000
22.7500 657.0000
22.7600 697.0000
22.7700 689.0000
22.7800 718.0000
22.7900 694.0000
22.8000 692.0000
22.8100 667.0000
22.8200 726.0000
22.8300 754.0000
22.8400 695.0000
22.8500 709.0000
22.8600 715.0000
22.8700 761.0000
22.8800 730.0000
22.8900 697.0000
22.9000 709.0000
22.9100 718.0000
22.9200 766.0000
22.9300 736.0000
22.9400 762.0000
22.9500 733.0000
22.9600 757.0000
22.9700 767.0000
22.9800 719.0000
22.9900 792.0000
23.0000 750.0000
23.0100 748.0000
23.0200 727.0000
23.0300 755.0000
23.0400 794.0000
23.0500 794.0000
23.0600 775.0000
23.0700 841.0000
23.0800 862.0000
23.0900 839.0000
23.1000 869.0000
23.1100 878.0000
23.1200 860.0000
23.1300 899.0000
23.1400 911.0000
23.1500 918.0000
23.1600 992.0000
23.1700 936.0000
23.1800 912.0000
23.1900 1019.0000
23.2000 1020.0000
23.2100 996.0000
23.2200 1103.0000
23.2300 1022.0000
23.2400 1038.0000
23.2500 1076.0000
23.2600 1074.0000
23.2700 1137.0000
23.2800 1132.0000
23.2900 1137.0000
23.3000 1124.0000
23.3100 1166.0000
23.3200 1205.0000
23.3300 1283.0000
23.3400 1265.0000
23.3500 1282.0000
23.3600 1273.0000
23.3700 1278.0000
23.3800 1342.0000
23.3900 1419.0000
23.4000 1364.0000
23.4100 1385.0000
23.4200 1448.0000
23.4300 1505.0000
23.4400 1561.0000
23.4500 1610.0000
23.4600 1608.0000
23.4700 1720.0000
23.4800 1732.0000
23.4900 1795.0000
23.5000 1841.0000
23.5100 1877.0000
23.5200 1973.0000
23.5300 2065.0000
23.5400 2155.0000
23.5500 2293.0000
23.5600 2399.0000
23.5700 2352.0000
23.5800 2633.0000
23.5900 2795.0000
23.6000 2913.0000
23.6100 3124.0000
23.6200 3172.0000
23.6300 3380.0000
23.6400 3456.0000
23.6500 3708.0000
23.6600 3946.0000
23.6700 4123.0000
23.6800 4250.0000
23.6900 4577.0000
23.7000 4853.0000
23.7100 5173.0000
23.7200 5314.0000
23.7300 5525.0000
23.7400 5785.0000
23.7500 5960.0000
23.7600 6231.0000
23.7700 6465.0000
23.7800 6893.0000
23.7900 7012.0000
23.8000 7255.0000
23.8100 7491.0000
23.8200 7853.0000
23.8300 7985.0000
23.8400 8184.0000
23.8500 8407.0000
23.8600 8656.0000
23.8700 8774.0000
23.8800 9010.0000
23.8900 9232.0000
23.9000 9235.0000
23.9100 9478.0000
23.9200 9622.0000
23.9300 9780.0000
23.9400 9883.0000
23.9500 9874.0000
23.9600 9918.0000
23.9700 10115.0000
23.9800 10141.0000
23.9900 10263.0000
24.0000 10259.0000
24.0100 10149.0000
24.0200 9950.0000
24.0300 10146.0000
24.0400 10132.0000
24.0500 9913.0000
24.0600 9710.0000
24.0700 9697.0000
24.0800 9457.0000
24.0900 9358.0000
24.1000 9000.0000
24.1100 9041.0000
24.1200 8842.0000
24.1300 8573.0000
24.1400 8350.0000
24.1500 8197.0000
24.1600 8054.0000
24.1700 7735.0000
24.1800 7380.0000
24.1900 7375.0000
24.2000 6915.0000
24.2100 6742.0000
24.2200 6426.0000
24.2300 6105.0000
24.2400 5920.0000
24.2500 5743.0000
24.2600 5396.0000
24.2700 5208.0000
24.2800 5031.0000
24.2900 4707.0000
24.3000 4479.0000
24.3100 4236.0000
24.3200 4127.0000
24.3300 3842.0000
24.3400 3767.0000
24.3500 3548.0000
24.3600 3251.0000
24.3700 3078.0000
24.3800 2941.0000
24.3900 2803.0000
24.4000 2674.0000
24.4100 2528.0000
24.4200 2396.0000
24.4300 2357.0000
24.4400 2202.0000
24.4500 2071.0000
24.4600 2001.0000
24.4700 1902.0000
24.4800 1815.0000
24.4900 1707.0000
24.5000 1691.0000
24.5100 1614.0000
24.5200 1545.0000
24.5300 1539.0000
24.5400 1511.0000
24.5500 1412.0000
24.5600 1401.0000
24.5700 1401.0000
24.5800 1415.0000
24.5900 1346.0000
24.6000 1292.0000
24.6100 1280.0000
24.6200 1228.0000
24.6300 1173.0000
24.6400 1209.0000
24.6500 1236.0000
24.6600 1198.0000
24.6700 1184.0000
24.6800 1179.0000
24.6900 1145.0000
24.7000 1106.0000
24.7100 1043.0000
24.7200 1049.0000
24.7300 1024.0000
24.7400 1007.0000
24.7500 1024.0000
24.7600 1039.0000
24.7700 1004.0000
24.7800 938.0000
24.7900 974.0000
24.8000 962.0000
24.8100 981.0000
24.8200 920.0000
24.8300 890.0000
24.8400 823.0000
24.8500 836.0000
24.8600 834.0000
24.8700 895.0000
24.8800 808.0000
24.8900 781.0000
24.9000 764.0000
24.9100 737.0000
24.9200 737.0000
24.9300 765.0000
24.9400 741.0000
24.9500 766.0000
24.9600 729.0000
24.9700 756.0000
24.9800 739.0000
24.9900 730.0000
25.0000 665.0000
25.0100 704.0000
25.0200 713.0000
25.0300 724.0000
25.0400 686.0000
25.0500 697.0000
25.0600 663.0000
25.0700 673.0000
25.0800 654.0000
25.0900 624.0000
25.1000 632.0000
25.1100 675.0000
25.1200 656.0000
25.1300 632.0000
25.1400 627.0000
25.1500 625.0000
25.1600 659.0000
25.1700 639.0000
25.1800 618.0000
25.1900 633.0000
25.2000 636.0000
25.2100 608.0000
25.2200 637.0000
25.2300 621.0000
25.2400 545.0000
25.2500 603.0000
25.2600 596.0000
25.2700 597.0000
25.2800 582.0000
25.2900 547.0000
25.3000 586.0000
25.3100 524.0000
25.3200 554.0000
25.3300 585.0000
25.3400 594.0000
25.3500 560.0000
25.3600 588.0000
25.3700 550.0000
25.3800 520.0000
25.3900 515.0000
25.4000 554.0000
25.4100 530.0000
25.4200 505.0000
25.4300 549.0000
25.4400 531.0000
25.4500 547.0000
25.4600 547.0000
25.4700 542.0000
25.4800 527.0000
25.4900 537.0000
25.5000 528.0000
25.5100 539.0000
25.5200 532.0000
25.5300 527.0000
25.5400 509.0000
25.5500 515.0000
25.5600 502.0000
25.5700 537.0000
25.5800 544.0000
25.5900 519.0000
25.6000 512.0000
25.6100 504.0000
25.6200 528.0000
25.6300 550.0000
25.6400 517.0000
25.6500 529.0000
25.6600 517.0000
25.6700 511.0000
25.6800 541.0000
25.6900 532.0000
25.7000 496.0000
25.7100 483.0000
25.7200 506.0000
25.7300 483.0000
25.7400 510.0000
25.7500 476.0000
25.7600 522.0000
25.7700 487.0000
25.7800 509.0000
25.7900 501.0000
25.8000 488.0000
25.8100 458.0000
25.8200 509.0000
25.8300 524.0000
25.8400 466.0000
25.8500 480.0000
25.8600 486.0000
25.8700 508.0000
25.8800 473.0000
25.8900 448.0000
25.9000 474.0000
25.9100 460.0000
25.9200 459.0000
25.9300 464.0000
25.9400 473.0000
25.9500 460.0000
25.9600 462.0000
25.9700 495.0000
25.9800 477.0000
25.9900 450.0000
26.0000 455.0000
26.0100 443.0000
26.0200 468.0000
26.0300 473.0000
26.0400 474.0000
26.0500 487.0000
26.0600 474.0000
26.0700 477.0000
26.0800 451.0000
26.0900 449.0000
26.1000 458.0000
26.1100 471.0000
26.1200 443.0000
26.1300 480.0000
26.1400 432.0000
26.1500 474.0000
26.1600 444.0000
26.1700 475.0000
26.1800 462.0000
26.1900 475.0000
26.2000 450.0000
26.2100 439.0000
26.2200 449.0000
26.2300 441.0000
26.2400 455.0000
26.2500 420.0000
26.2600 448.0000
26.2700 430.0000
26.2800 412.0000
26.2900 428.0000
26.3000 460.0000
26.3100 424.0000
26.3200 446.0000
26.3300 413.0000
26.3400 450.0000
26.3500 457.0000
26.3600 424.0000
26.3700 451.0000
26.3800 455.0000
26.3900 433.0000
26.4000 436.0000
26.4100 431.0000
26.4200 477.0000
26.4300 452.0000
26.4400 422.0000
26.4500 416.0000
26.4600 404.0000
26.4700 440.0000
26.4800 437.0000
26.4900 449.0000
26.5000 421.0000
26.5100 414.0000
26.5200 428.0000
26.5300 428.0000
26.5400 434.0000
26.5500 408.0000
26.5600 433.0000
26.5700 442.0000
26.5800 451.0000
26.5900 419.0000
26.6000 420.0000
26.6100 415.0000
26.6200 436.0000
26.6300 409.0000
26.6400 447.0000
26.6500 386.0000
26.6600 406.0000
26.6700 431.0000
26.6800 447.0000
26.6900 419.0000
26.7000 419.0000
26.7100 424.0000
26.7200 419.0000
26.7300 360.0000
26.7400 400.0000
26.7500 438.0000
26.7600 445.0000
26.7700 372.0000
26.7800 433.0000
26.7900 443.0000
26.8000 422.0000
26.8100 412.0000
26.8200 460.0000
26.8300 404.0000
26.8400 409.0000
26.8500 436.0000
26.8600 434.0000
26.8700 414.0000
26.8800 405.0000
26.8900 418.0000
26.9000 421.0000
26.9100 404.0000
26.9200 368.0000
26.9300 427.0000
26.9400 412.0000
26.9500 404.0000
26.9600 418.0000
26.9700 388.0000
26.9800 425.0000
26.9900 414.0000
27.0000 434.0000
27.0100 418.0000
27.0200 406.0000
27.0300 396.0000
27.0400 393.0000
27.0500 431.0000
27.0600 414.0000
27.0700 411.0000
27.0800 383.0000
27.0900 422.0000
27.1000 380.0000
27.1100 401.0000
27.1200 419.0000
27.1300 414.0000
27.1400 415.0000
27.1500 423.0000
27.1600 377.0000
27.1700 345.0000
27.1800 368.0000
27.1900 393.0000
27.2000 389.0000
27.2100 406.0000
27.2200 430.0000
27.2300 444.0000
27.2400 406.0000
27.2500 382.0000
27.2600 401.0000
27.2700 405.0000
27.2800 393.0000
27.2900 401.0000
27.3000 403.0000
27.3100 401.0000
27.3200 422.0000
27.3300 403.0000
27.3400 390.0000
27.3500 388.0000
27.3600 399.0000
27.3700 378.0000
27.3800 375.0000
27.3900 360.0000
27.4000 393.0000
27.4100 399.0000
27.4200 392.0000
27.4300 372.0000
27.4400 414.0000
27.4500 364.0000
27.4600 379.0000
27.4700 389.0000
27.4800 420.0000
27.4900 420.0000
27.5000 396.0000
27.5100 371.0000
27.5200 376.0000
27.5300 390.0000
27.5400 333.0000
27.5500 388.0000
27.5600 404.0000
27.5700 385.0000
27.5800 393.0000
27.5900 398.0000
27.6000 371.0000
27.6100 396.0000
27.6200 379.0000
27.6300 371.0000
27.6400 343.0000
27.6500 382.0000
27.6600 399.0000
27.6700 391.0000
27.6800 369.0000
27.6900 374.0000
27.7000 384.0000
27.7100 398.0000
27.7200 376.0000
27.7300 350.0000
27.7400 398.0000
27.7500 406.0000
27.7600 373.0000
27.7700 386.0000
27.7800 355.0000
27.7900 411.0000
27.8000 371.0000
27.8100 391.0000
27.8200 376.0000
27.8300 388.0000
27.8400 374.0000
27.8500 384.0000
27.8600 376.0000
27.8700 368.0000
27.8800 359.0000
27.8900 377.0000
27.9000 389.0000
27.9100 399.0000
27.9200 338.0000
27.9300 344.0000
27.9400 355.0000
27.9500 342.0000
27.9600 390.0000
27.9700 402.0000
27.9800 390.0000
27.9900 364.0000
28.0000 382.0000
28.0100 361.0000
28.0200 366.0000
28.0300 344.0000
28.0400 367.0000
28.0500 370.0000
28.0600 395.0000
28.0700 377.0000
28.0800 354.0000
28.0900 377.0000
28.1000 375.0000
28.1100 340.0000
28.1200 339.0000
28.1300 375.0000
28.1400 383.0000
28.1500 361.0000
28.1600 368.0000
28.1700 366.0000
28.1800 399.0000
28.1900 357.0000
28.2000 396.0000
28.2100 363.0000
28.2200 340.0000
28.2300 357.0000
28.2400 361.0000
28.2500 378.0000
28.2600 351.0000
28.2700 389.0000
28.2800 371.0000
28.2900 383.0000
28.3000 371.0000
28.3100 375.0000
28.3200 356.0000
28.3300 352.0000
28.3400 355.0000
28.3500 373.0000
28.3600 385.0000
28.3700 372.0000
28.3800 351.0000
28.3900 381.0000
28.4000 369.0000
28.4100 331.0000
28.4200 364.0000
28.4300 381.0000
28.4400 352.0000
28.4500 347.0000
28.4600 374.0000
28.4700 363.0000
28.4800 360.0000
28.4900 356.0000
28.5000 363.0000
28.5100 332.0000
28.5200 355.0000
28.5300 366.0000
28.5400 364.0000
28.5500 375.0000
28.5600 379.0000
28.5700 375.0000
28.5800 358.0000
28.5900 329.0000
28.6000 351.0000
28.6100 364.0000
28.6200 364.0000
28.6300 361.0000
28.6400 373.0000
28.6500 349.0000
28.6600 365.0000
28.6700 362.0000
28.6800 367.0000
28.6900 354.0000
28.7000 366.0000
28.7100 368.0000
28.7200 353.0000
28.7300 341.0000
28.7400 326.0000
28.7500 366.0000
28.7600 347.0000
28.7700 359.0000
28.7800 351.0000
28.7900 368.0000
28.8000 317.0000
28.8100 355.0000
28.8200 359.0000
28.8300 365.0000
28.8400 372.0000
28.8500 358.0000
28.8600 320.0000
28.8700 330.0000
28.8800 340.0000
28.8900 355.0000
28.9000 346.0000
28.9100 342.0000
28.9200 322.0000
28.9300 354.0000
28.9400 387.0000
28.9500 345.0000
28.9600 333.0000
28.9700 366.0000
28.9800 337.0000
28.9900 358.0000
29.0000 357.0000
29.0100 329.0000
29.0200 336.0000
29.0300 341.0000
29.0400 347.0000
29.0500 338.0000
29.0600 360.0000
29.0700 344.0000
29.0800 330.0000
29.0900 370.0000
29.1000 352.0000
29.1100 335.0000
29.1200 347.0000
29.1300 344.0000
29.1400 333.0000
29.1500 319.0000
29.1600 344.0000
29.1700 361.0000
29.1800 350.0000
29.1900 338.0000
29.2000 356.0000
29.2100 352.0000
29.2200 350.0000
29.2300 348.0000
29.2400 339.0000
29.2500 333.0000
29.2600 350.0000
29.2700 378.0000
29.2800 342.0000
29.2900 347.0000
29.3000 309.0000
29.3100 388.0000
29.3200 357.0000
29.3300 333.0000
29.3400 318.0000
29.3500 329.0000
29.3600 338.0000
29.3700 323.0000
29.3800 365.0000
29.3900 362.0000
29.4000 340.0000
29.4100 342.0000
29.4200 343.0000
29.4300 326.0000
29.4400 322.0000
29.4500 315.0000
29.4600 332.0000
29.4700 356.0000
29.4800 342.0000
29.4900 341.0000
29.5000 340.0000
29.5100 327.0000
29.5200 354.0000
29.5300 351.0000
29.5400 313.0000
29.5500 364.0000
29.5600 353.0000
29.5700 341.0000
29.5800 318.0000
29.5900 351.0000
29.6000 307.0000
29.6100 350.0000
29.6200 326.0000
29.6300 324.0000
29.6400 337.0000
29.6500 340.0000
29.6600 329.0000
29.6700 332.0000
29.6800 320.0000
29.6900 322.0000
29.7000 358.0000
29.7100 308.0000
29.7200 344.0000
29.7300 354.0000
29.7400 355.0000
29.7500 352.0000
29.7600 331.0000
29.7700 319.0000
29.7800 344.0000
29.7900 331.0000
29.8000 352.0000
29.8100 332.0000
29.8200 323.0000
29.8300 326.0000
29.8400 315.0000
29.8500 327.0000
29.8600 312.0000
29.8700 329.0000
29.8800 309.0000
29.8900 342.0000
29.9000 327.0000
29.9100 312.0000
29.9200 316.0000
29.9300 330.0000
29.9400 322.0000
29.9500 327.0000
29.9600 300.0000
29.9700 357.0000
29.9800 349.0000
29.9900 323.0000
30.0000 334.0000
30.0100 324.0000
30.0200 321.0000
30.0300 342.0000
30.0400 360.0000
30.0500 296.0000
30.0600 325.0000
30.0700 335.0000
30.0800 343.0000
30.0900 317.0000
30.1000 312.0000
30.1100 332.0000
30.1200 341.0000
30.1300 333.0000
30.1400 345.0000
30.1500 320.0000
30.1600 297.0000
30.1700 341.0000
30.1800 343.0000
30.1900 316.0000
30.2000 307.0000
30.2100 290.0000
30.2200 306.0000
30.2300 351.0000
30.2400 306.0000
30.2500 295.0000
30.2600 306.0000
30.2700 297.0000
30.2800 331.0000
30.2900 334.0000
30.3000 308.0000
30.3100 314.0000
30.3200 305.0000
30.3300 362.0000
30.3400 307.0000
30.3500 326.0000
30.3600 324.0000
30.3700 319.0000
30.3800 333.0000
30.3900 322.0000
30.4000 330.0000
30.4100 339.0000
30.4200 325.0000
30.4300 312.0000
30.4400 340.0000
30.4500 327.0000
30.4600 314.0000
30.4700 318.0000
30.4800 325.0000
30.4900 289.0000
30.5000 313.0000
30.5100 325.0000
30.5200 292.0000
30.5300 309.0000
30.5400 322.0000
30.5500 371.0000
30.5600 323.0000
30.5700 316.0000
30.5800 313.0000
30.5900 294.0000
30.6000 322.0000
30.6100 309.0000
30.6200 318.0000
30.6300 324.0000
30.6400 303.0000
30.6500 307.0000
30.6600 311.0000
30.6700 344.0000
30.6800 344.0000
30.6900 331.0000
30.7000 301.0000
30.7100 348.0000
30.7200 335.0000
30.7300 338.0000
30.7400 337.0000
30.7500 310.0000
30.7600 305.0000
30.7700 333.0000
30.7800 289.0000
30.7900 301.0000
30.8000 289.0000
30.8100 315.0000
30.8200 329.0000
30.8300 312.0000
30.8400 332.0000
30.8500 316.0000
30.8600 313.0000
30.8700 299.0000
30.8800 315.0000
30.8900 320.0000
30.9000 308.0000
30.9100 333.0000
30.9200 305.0000
30.9300 289.0000
30.9400 304.0000
30.9500 315.0000
30.9600 310.0000
30.9700 318.0000
30.9800 294.0000
30.9900 328.0000
31.0000 318.0000
31.0100 276.0000
31.0200 323.0000
31.0300 288.0000
31.0400 292.0000
31.0500 291.0000
31.0600 317.0000
31.0700 307.0000
31.0800 331.0000
31.0900 313.0000
31.1000 329.0000
31.1100 308.0000
31.1200 326.0000
31.1300 303.0000
31.1400 315.0000
31.1500 291.0000
31.1600 301.0000
31.1700 306.0000
31.1800 331.0000
31.1900 309.0000
31.2000 323.0000
31.2100 301.0000
31.2200 278.0000
31.2300 302.0000
31.2400 310.0000
31.2500 301.0000
31.2600 336.0000
31.2700 306.0000
31.2800 315.0000
31.2900 294.0000
31.3000 302.0000
31.3100 309.0000
31.3200 332.0000
31.3300 335.0000
31.3400 312.0000
31.3500 313.0000
31.3600 308.0000
31.3700 318.0000
31.3800 296.0000
31.3900 295.0000
31.4000 284.0000
31.4100 281.0000
31.4200 307.0000
31.4300 304.0000
31.4400 302.0000
31.4500 296.0000
31.4600 319.0000
31.4700 309.0000
31.4800 305.0000
31.4900 327.0000
31.5000 277.0000
31.5100 282.0000
31.5200 257.0000
31.5300 306.0000
31.5400 316.0000
31.5500 329.0000
31.5600 299.0000
31.5700 309.0000
31.5800 311.0000
31.5900 324.0000
31.6000 274.0000
31.6100 306.0000
31.6200 324.0000
31.6300 295.0000
31.6400 305.0000
31.6500 316.0000
31.6600 290.0000
31.6700 317.0000
31.6800 293.0000
31.6900 323.0000
31.7000 324.0000
31.7100 294.0000
31.7200 280.0000
31.7300 315.0000
31.7400 275.0000
31.7500 315.0000
31.7600 336.0000
31.7700 317.0000
31.7800 313.0000
31.7900 304.0000
31.8000 278.0000
31.8100 279.0000
31.8200 296.0000
31.8300 293.0000
31.8400 315.0000
31.8500 334.0000
31.8600 324.0000
31.8700 315.0000
31.8800 323.0000
31.8900 294.0000
31.9000 311.0000
31.9100 329.0000
31.9200 277.0000
31.9300 324.0000
31.9400 303.0000
31.9500 299.0000
31.9600 321.0000
31.9700 365.0000
31.9800 330.0000
31.9900 320.0000
32.0000 315.0000
32.0100 310.0000
32.0200 311.0000
32.0300 305.0000
32.0400 328.0000
32.0500 338.0000
32.0600 340.0000
32.0700 315.0000
32.0800 370.0000
32.0900 330.0000
32.1000 314.0000
32.1100 347.0000
32.1200 309.0000
32.1300 311.0000
32.1400 334.0000
32.1500 318.0000
32.1600 309.0000
32.1700 336.0000
32.1800 333.0000
32.1900 331.0000
32.2000 368.0000
32.2100 321.0000
32.2200 366.0000
32.2300 375.0000
32.2400 320.0000
32.2500 325.0000
32.2600 361.0000
32.2700 370.0000
32.2800 360.0000
32.2900 320.0000
32.3000 333.0000
32.3100 331.0000
32.3200 366.0000
32.3300 340.0000
32.3400 352.0000
32.3500 322.0000
32.3600 331.0000
32.3700 375.0000
32.3800 348.0000
32.3900 346.0000
32.4000 364.0000
32.4100 388.0000
32.4200 426.0000
32.4300 414.0000
32.4400 412.0000
32.4500 388.0000
32.4600 427.0000
32.4700 426.0000
32.4800 446.0000
32.4900 482.0000
32.5000 479.0000
32.5100 514.0000
32.5200 556.0000
32.5300 545.0000
32.5400 564.0000
32.5500 532.0000
32.5600 621.0000
32.5700 584.0000
32.5800 613.0000
32.5900 671.0000
32.6000 687.0000
32.6100 697.0000
32.6200 730.0000
32.6300 746.0000
32.6400 775.0000
32.6500 772.0000
32.6600 781.0000
32.6700 835.0000
32.6800 838.0000
32.6900 873.0000
32.7000 931.0000
32.7100 937.0000
32.7200 949.0000
32.7300 955.0000
32.7400 955.0000
32.7500 954.0000
32.7600 958.0000
32.7700 920.0000
32.7800 947.0000
32.7900 972.0000
32.8000 963.0000
32.8100 951.0000
32.8200 964.0000
32.8300 937.0000
32.8400 936.0000
32.8500 970.0000
32.8600 958.0000
32.8700 954.0000
32.8800 973.0000
32.8900 924.0000
32.9000 928.0000
32.9100 895.0000
32.9200 856.0000
32.9300 795.0000
32.9400 800.0000
32.9500 801.0000
32.9600 746.0000
32.9700 741.0000
32.9800 771.0000
32.9900 745.0000
33.0000 707.0000
33.0100 629.0000
33.0200 635.0000
33.0300 601.0000
33.0400 635.0000
33.0500 574.0000
33.0600 590.0000
33.0700 537.0000
33.0800 527.0000
33.0900 537.0000
33.1000 510.0000
33.1100 511.0000
33.1200 487.0000
33.1300 479.0000
33.1400 468.0000
33.1500 425.0000
33.1600 424.0000
33.1700 408.0000
33.1800 413.0000
33.1900 412.0000
33.2000 390.0000
33.2100 370.0000
33.2200 384.0000
33.2300 389.0000
33.2400 366.0000
33.2500 364.0000
33.2600 378.0000
33.2700 352.0000
33.2800 327.0000
33.2900 335.0000
33.3000 335.0000
33.3100 372.0000
33.3200 340.0000
33.3300 331.0000
33.3400 316.0000
33.3500 316.0000
33.3600 333.0000
33.3700 337.0000
33.3800 302.0000
33.3900 335.0000
33.4000 338.0000
33.4100 348.0000
33.4200 285.0000
33.4300 320.0000
33.4400 331.0000
33.4500 332.0000
33.4600 310.0000
33.4700 329.0000
33.4800 315.0000
33.4900 329.0000
33.5000 319.0000
33.5100 322.0000
33.5200 313.0000
33.5300 291.0000
33.5400 333.0000
33.5500 319.0000
33.5600 320.0000
33.5700 322.0000
33.5800 310.0000
33.5900 317.0000
33.6000 304.0000
33.6100 341.0000
33.6200 323.0000
33.6300 309.0000
33.6400 272.0000
33.6500 290.0000
33.6600 268.0000
33.6700 279.0000
33.6800 305.0000
33.6900 314.0000
33.7000 308.0000
33.7100 299.0000
33.7200 307.0000
33.7300 302.0000
33.7400 297.0000
33.7500 285.0000
33.7600 311.0000
33.7700 288.0000
33.7800 314.0000
33.7900 291.0000
33.8000 295.0000
33.8100 284.0000
33.8200 306.0000
33.8300 306.0000
33.8400 300.0000
33.8500 313.0000
33.8600 269.0000
33.8700 281.0000
33.8800 268.0000
33.8900 316.0000
33.9000 280.0000
33.9100 320.0000
33.9200 307.0000
33.9300 287.0000
33.9400 296.0000
33.9500 304.0000
33.9600 308.0000
33.9700 283.0000
33.9800 241.0000
33.9900 283.0000
34.0000 294.0000
34.0100 271.0000
34.0200 327.0000
34.0300 295.0000
34.0400 293.0000
34.0500 278.0000
34.0600 303.0000
34.0700 282.0000
34.0800 284.0000
34.0900 318.0000
34.1000 304.0000
34.1100 302.0000
34.1200 294.0000
34.1300 282.0000
34.1400 270.0000
34.1500 290.0000
34.1600 287.0000
34.1700 317.0000
34.1800 303.0000
34.1900 276.0000
34.2000 299.0000
34.2100 286.0000
34.2200 286.0000
34.2300 263.0000
34.2400 278.0000
34.2500 290.0000
34.2600 275.0000
34.2700 282.0000
34.2800 284.0000
34.2900 285.0000
34.3000 304.0000
34.3100 299.0000
34.3200 280.0000
34.3300 270.0000
34.3400 284.0000
34.3500 277.0000
34.3600 299.0000
34.3700 309.0000
34.3800 321.0000
34.3900 311.0000
34.4000 292.0000
34.4100 275.0000
34.4200 299.0000
34.4300 285.0000
34.4400 278.0000
34.4500 265.0000
34.4600 286.0000
34.4700 314.0000
34.4800 267.0000
34.4900 315.0000
34.5000 281.0000
34.5100 318.0000
34.5200 299.0000
34.5300 305.0000
34.5400 280.0000
34.5500 313.0000
34.5600 311.0000
34.5700 316.0000
34.5800 300.0000
34.5900 311.0000
34.6000 317.0000
34.6100 296.0000
34.6200 306.0000
34.6300 305.0000
34.6400 302.0000
34.6500 258.0000
34.6600 305.0000
34.6700 286.0000
34.6800 290.0000
34.6900 311.0000
34.7000 287.0000
34.7100 324.0000
34.7200 295.0000
34.7300 286.0000
34.7400 339.0000
34.7500 313.0000
34.7600 303.0000
34.7700 316.0000
34.7800 293.0000
34.7900 308.0000
34.8000 287.0000
34.8100 329.0000
34.8200 315.0000
34.8300 315.0000
34.8400 293.0000
34.8500 305.0000
34.8600 309.0000
34.8700 308.0000
34.8800 309.0000
34.8900 321.0000
34.9000 301.0000
34.9100 338.0000
34.9200 310.0000
34.9300 324.0000
34.9400 324.0000
34.9500 309.0000
34.9600 291.0000
34.9700 328.0000
34.9800 297.0000
34.9900 299.0000
35.0000 296.0000
35.0100 268.0000
35.0200 334.0000
35.0300 316.0000
35.0400 313.0000
35.0500 322.0000
35.0600 325.0000
35.0700 317.0000
35.0800 337.0000
35.0900 289.0000
35.1000 296.0000
35.1100 309.0000
35.1200 305.0000
35.1300 274.0000
35.1400 325.0000
35.1500 334.0000
35.1600 311.0000
35.1700 319.0000
35.1800 336.0000
35.1900 295.0000
35.2000 317.0000
35.2100 317.0000
35.2200 312.0000
35.2300 319.0000
35.2400 334.0000
35.2500 339.0000
35.2600 312.0000
35.2700 308.0000
35.2800 333.0000
35.2900 361.0000
35.3000 333.0000
35.3100 362.0000
35.3200 353.0000
35.3300 321.0000
35.3400 330.0000
35.3500 328.0000
35.3600 350.0000
35.3700 334.0000
35.3800 338.0000
35.3900 366.0000
35.4000 358.0000
35.4100 369.0000
35.4200 328.0000
35.4300 342.0000
35.4400 364.0000
35.4500 323.0000
35.4600 339.0000
35.4700 328.0000
35.4800 350.0000
35.4900 367.0000
35.5000 349.0000
35.5100 340.0000
35.5200 341.0000
35.5300 328.0000
35.5400 360.0000
35.5500 363.0000
35.5600 338.0000
35.5700 372.0000
35.5800 365.0000
35.5900 344.0000
35.6000 361.0000
35.6100 371.0000
35.6200 362.0000
35.6300 351.0000
35.6400 321.0000
35.6500 348.0000
35.6600 372.0000
35.6700 355.0000
35.6800 335.0000
35.6900 350.0000
35.7000 386.0000
35.7100 341.0000
35.7200 380.0000
35.7300 360.0000
35.7400 362.0000
35.7500 361.0000
35.7600 394.0000
35.7700 371.0000
35.7800 363.0000
35.7900 366.0000
35.8000 366.0000
35.8100 379.0000
35.8200 367.0000
35.8300 393.0000
35.8400 395.0000
35.8500 380.0000
35.8600 376.0000
35.8700 366.0000
35.8800 362.0000
35.8900 400.0000
35.9000 394.0000
35.9100 362.0000
35.9200 388.0000
35.9300 407.0000
35.9400 413.0000
35.9500 384.0000
35.9600 391.0000
35.9700 367.0000
35.9800 411.0000
35.9900 374.0000
36.0000 371.0000
36.0100 376.0000
36.0200 422.0000
36.0300 404.0000
36.0400 365.0000
36.0500 353.0000
36.0600 421.0000
36.0700 405.0000
36.0800 405.0000
36.0900 399.0000
36.1000 374.0000
36.1100 383.0000
36.1200 381.0000
36.1300 361.0000
36.1400 397.0000
36.1500 395.0000
36.1600 389.0000
36.1700 433.0000
36.1800 405.0000
36.1900 413.0000
36.2000 457.0000
36.2100 438.0000
36.2200 402.0000
36.2300 417.0000
36.2400 424.0000
36.2500 412.0000
36.2600 412.0000
36.2700 410.0000
36.2800 431.0000
36.2900 419.0000
36.3000 422.0000
36.3100 433.0000
36.3200 430.0000
36.3300 397.0000
36.3400 452.0000
36.3500 385.0000
36.3600 398.0000
36.3700 422.0000
36.3800 448.0000
36.3900 422.0000
36.4000 426.0000
36.4100 432.0000
36.4200 440.0000
36.4300 446.0000
36.4400 401.0000
36.4500 412.0000
36.4600 428.0000
36.4700 391.0000
36.4800 421.0000
36.4900 426.0000
36.5000 440.0000
36.5100 440.0000
36.5200 436.0000
36.5300 431.0000
36.5400 448.0000
36.5500 427.0000
36.5600 409.0000
36.5700 416.0000
36.5800 440.0000
36.5900 434.0000
36.6000 454.0000
36.6100 427.0000
36.6200 418.0000
36.6300 448.0000
36.6400 446.0000
36.6500 468.0000
36.6600 490.0000
36.6700 464.0000
36.6800 476.0000
36.6900 462.0000
36.7000 466.0000
36.7100 439.0000
36.7200 465.0000
36.7300 475.0000
36.7400 459.0000
36.7500 461.0000
36.7600 475.0000
36.7700 431.0000
36.7800 466.0000
36.7900 456.0000
36.8000 463.0000
36.8100 497.0000
36.8200 470.0000
36.8300 472.0000
36.8400 499.0000
36.8500 469.0000
36.8600 450.0000
36.8700 461.0000
36.8800 476.0000
36.8900 487.0000
36.9000 428.0000
36.9100 435.0000
36.9200 474.0000
36.9300 456.0000
36.9400 441.0000
36.9500 482.0000
36.9600 471.0000
36.9700 454.0000
36.9800 475.0000
36.9900 437.0000
37.0000 439.0000
37.0100 458.0000
37.0200 471.0000
37.0300 492.0000
37.0400 499.0000
37.0500 468.0000
37.0600 492.0000
37.0700 453.0000
37.0800 492.0000
37.0900 481.0000
37.1000 497.0000
37.1100 495.0000
37.1200 491.0000
37.1300 508.0000
37.1400 537.0000
37.1500 492.0000
37.1600 544.0000
37.1700 547.0000
37.1800 545.0000
37.1900 506.0000
37.2000 520.0000
37.2100 552.0000
37.2200 542.0000
37.2300 539.0000
37.2400 545.0000
37.2500 537.0000
37.2600 515.0000
37.2700 555.0000
37.2800 511.0000
37.2900 504.0000
37.3000 513.0000
37.3100 511.0000
37.3200 528.0000
37.3300 494.0000
37.3400 486.0000
37.3500 512.0000
37.3600 552.0000
37.3700 525.0000
37.3800 498.0000
37.3900 528.0000
37.4000 481.0000
37.4100 510.0000
37.4200 497.0000
37.4300 486.0000
37.4400 545.0000
37.4500 512.0000
37.4600 537.0000
37.4700 552.0000
37.4800 502.0000
37.4900 544.0000
37.5000 546.0000
37.5100 518.0000
37.5200 531.0000
37.5300 587.0000
37.5400 580.0000
37.5500 580.0000
37.5600 609.0000
37.5700 587.0000
37.5800 606.0000
37.5900 587.0000
37.6000 585.0000
37.6100 598.0000
37.6200 603.0000
37.6300 596.0000
37.6400 600.0000
37.6500 603.0000
37.6600 586.0000
37.6700 608.0000
37.6800 579.0000
37.6900 584.0000
37.7000 613.0000
37.7100 613.0000
37.7200 590.0000
37.7300 583.0000
37.7400 606.0000
37.7500 576.0000
37.7600 600.0000
37.7700 599.0000
37.7800 585.0000
37.7900 567.0000
37.8000 538.0000
37.8100 562.0000
37.8200 547.0000
37.8300 560.0000
37.8400 611.0000
37.8500 582.0000
37.8600 612.0000
37.8700 549.0000
37.8800 574.0000
37.8900 534.0000
37.9000 528.0000
37.9100 572.0000
37.9200 550.0000
37.9300 593.0000
37.9400 591.0000
37.9500 587.0000
37.9600 615.0000
37.9700 599.0000
37.9800 589.0000
37.9900 652.0000
38.0000 655.0000
38.0100 661.0000
38.0200 664.0000
38.0300 690.0000
38.0400 693.0000
38.0500 680.0000
38.0600 741.0000
38.0700 651.0000
38.0800 683.0000
38.0900 686.0000
38.1000 687.0000
38.1100 702.0000
38.1200 682.0000
38.1300 709.0000
38.1400 675.0000
38.1500 683.0000
38.1600 710.0000
38.1700 668.0000
38.1800 654.0000
38.1900 681.0000
38.2000 643.0000
38.2100 657.0000
38.2200 682.0000
38.2300 656.0000
38.2400 632.0000
38.2500 609.0000
38.2600 606.0000
38.2700 620.0000
38.2800 624.0000
38.2900 619.0000
38.3000 614.0000
38.3100 631.0000
38.3200 672.0000
38.3300 639.0000
38.3400 619.0000
38.3500 614.0000
38.3600 644.0000
38.3700 647.0000
38.3800 617.0000
38.3900 649.0000
38.4000 720.0000
38.4100 695.0000
38.4200 735.0000
38.4300 711.0000
38.4400 737.0000
38.4500 749.0000
38.4600 743.0000
38.4700 771.0000
38.4800 789.0000
38.4900 838.0000
38.5000 804.0000
38.5100 834.0000
38.5200 822.0000
38.5300 859.0000
38.5400 864.0000
38.5500 843.0000
38.5600 899.0000
38.5700 872.0000
38.5800 885.0000
38.5900 871.0000
38.6000 854.0000
38.6100 807.0000
38.6200 832.0000
38.6300 810.0000
38.6400 780.0000
38.6500 814.0000
38.6600 779.0000
38.6700 765.0000
38.6800 696.0000
38.6900 780.0000
38.7000 746.0000
38.7100 676.0000
38.7200 713.0000
38.7300 663.0000
38.7400 697.0000
38.7500 699.0000
38.7600 693.0000
38.7700 676.0000
38.7800 716.0000
38.7900 672.0000
38.8000 775.0000
38.8100 736.0000
38.8200 709.0000
38.8300 711.0000
38.8400 745.0000
38.8500 722.0000
38.8600 783.0000
38.8700 797.0000
38.8800 845.0000
38.8900 901.0000
38.9000 840.0000
38.9100 892.0000
38.9200 924.0000
38.9300 973.0000
38.9400 989.0000
38.9500 962.0000
38.9600 1047.0000
38.9700 1005.0000
38.9800 976.0000
38.9900 1008.0000
39.0000 1053.0000
39.0100 1062.0000
39.0200 1104.0000
39.0300 1058.0000
39.0400 1039.0000
39.0500 1007.0000
39.0600 1031.0000
39.0700 1079.0000
39.0800 999.0000
39.0900 967.0000
39.1000 947.0000
39.1100 920.0000
39.1200 934.0000
39.1300 877.0000
39.1400 839.0000
39.1500 866.0000
39.1600 910.0000
39.1700 877.0000
39.1800 777.0000
39.1900 785.0000
39.2000 780.0000
39.2100 808.0000
39.2200 799.0000
39.2300 743.0000
39.2400 804.0000
39.2500 813.0000
39.2600 795.0000
39.2700 831.0000
39.2800 900.0000
39.2900 933.0000
39.3000 850.0000
39.3100 952.0000
39.3200 975.0000
39.3300 1030.0000
39.3400 1060.0000
39.3500 1124.0000
39.3600 1157.0000
39.3700 1156.0000
39.3800 1207.0000
39.3900 1235.0000
39.4000 1287.0000
39.4100 1315.0000
39.4200 1333.0000
39.4300 1396.0000
39.4400 1426.0000
39.4500 1393.0000
39.4600 1431.0000
39.4700 1409.0000
39.4800 1399.0000
39.4900 1369.0000
39.5000 1367.0000
39.5100 1307.0000
39.5200 1288.0000
39.5300 1286.0000
39.5400 1282.0000
39.5500 1197.0000
39.5600 1173.0000
39.5700 1136.0000
39.5800 1149.0000
39.5900 1142.0000
39.6000 1054.0000
39.6100 998.0000
39.6200 996.0000
39.6300 969.0000
39.6400 960.0000
39.6500 947.0000
39.6600 925.0000
39.6700 870.0000
39.6800 942.0000
39.6900 956.0000
39.7000 972.0000
39.7100 984.0000
39.7200 1005.0000
39.7300 1017.0000
39.7400 1118.0000
39.7500 1108.0000
39.7600 1198.0000
39.7700 1236.0000
39.7800 1336.0000
39.7900 1341.0000
39.8000 1440.0000
39.8100 1558.0000
39.8200 1576.0000
39.8300 1739.0000
39.8400 1764.0000
39.8500 1899.0000
39.8600 1884.0000
39.8700 1971.0000
39.8800 2060.0000
39.8900 2047.0000
39.9000 2060.0000
39.9100 2070.0000
39.9200 2130.0000
39.9300 2083.0000
39.9400 2076.0000
39.9500 2093.0000
39.9600 2094.0000
39.9700 2005.0000
39.9800 2010.0000
39.9900 1874.0000
40.0000 1874.0000
40.0100 1814.0000
40.0200 1771.0000
40.0300 1616.0000
40.0400 1544.0000
40.0500 1521.0000
40.0600 1468.0000
40.0700 1368.0000
40.0800 1273.0000
40.0900 1206.0000
40.1000 1176.0000
40.1100 1162.0000
40.1200 1169.0000
40.1300 1125.0000
40.1400 1161.0000
40.1500 1188.0000
40.1600 1276.0000
40.1700 1387.0000
40.1800 1423.0000
40.1900 1532.0000
40.2000 1597.0000
40.2100 1725.0000
40.2200 1892.0000
40.2300 2105.0000
40.2400 2248.0000
40.2500 2440.0000
40.2600 2529.0000
40.2700 2715.0000
40.2800 3002.0000
40.2900 3148.0000
40.3000 3388.0000
40.3100 3370.0000
40.3200 3657.0000
40.3300 3776.0000
40.3400 3936.0000
40.3500 3954.0000
40.3600 4111.0000
40.3700 4192.0000
40.3800 4099.0000
40.3900 4244.0000
40.4000 4266.0000
40.4100 4128.0000
40.4200 4060.0000
40.4300 4079.0000
40.4400 3900.0000
40.4500 3745.0000
40.4600 3599.0000
40.4700 3462.0000
40.4800 3290.0000
40.4900 3051.0000
40.5000 2877.0000
40.5100 2686.0000
40.5200 2641.0000
40.5300 2397.0000
40.5400 2207.0000
40.5500 2120.0000
40.5600 2022.0000
40.5700 1967.0000
40.5800 1963.0000
40.5900 2042.0000
40.6000 2182.0000
40.6100 2323.0000
40.6200 2562.0000
40.6300 2881.0000
40.6400 3326.0000
40.6500 3790.0000
40.6600 4333.0000
40.6700 4897.0000
40.6800 5681.0000
40.6900 6564.0000
40.7000 7432.0000
40.7100 8439.0000
40.7200 9689.0000
40.7300 10756.0000
40.7400 11970.0000
40.7500 13282.0000
40.7600 14628.0000
40.7700 16036.0000
40.7800 17665.0000
40.7900 19380.0000
40.8000 20699.0000
40.8100 22461.0000
40.8200 23992.0000
40.8300 25765.0000
40.8400 27503.0000
40.8500 29002.0000
40.8600 30832.0000
40.8700 32375.0000
40.8800 33710.0000
40.8900 35245.0000
40.9000 36756.0000
40.9100 38097.0000
40.9200 39256.0000
40.9300 40284.0000
40.9400 41967.0000
40.9500 42688.0000
40.9600 43427.0000
40.9700 44216.0000
40.9800 44596.0000
40.9900 45227.0000
41.0000 45176.0000
41.0100 45194.0000
41.0200 45372.0000
41.0300 45334.0000
41.0400 45172.0000
41.0500 44696.0000
41.0600 44194.0000
41.0700 43582.0000
41.0800 42989.0000
41.0900 42371.0000
41.1000 40983.0000
41.1100 39932.0000
41.1200 38442.0000
41.1300 37444.0000
41.1400 36280.0000
41.1500 35392.0000
41.1600 33684.0000
41.1700 32493.0000
41.1800 31176.0000
41.1900 29481.0000
41.2000 28115.0000
41.2100 26534.0000
41.2200 25124.0000
41.2300 23328.0000
41.2400 22091.0000
41.2500 20588.0000
41.2600 19289.0000
41.2700 17807.0000
41.2800 16533.0000
41.2900 15279.0000
41.3000 14118.0000
41.3100 12925.0000
41.3200 11792.0000
41.3300 10922.0000
41.3400 9796.0000
41.3500 8789.0000
41.3600 8111.0000
41.3700 7183.0000
41.3800 6748.0000
41.3900 6015.0000
41.4000 5416.0000
41.4100 5017.0000
41.4200 4533.0000
41.4300 3970.0000
41.4400 3864.0000
41.4500 3495.0000
41.4600 3258.0000
41.4700 3043.0000
41.4800 2840.0000
41.4900 2742.0000
41.5000 2531.0000
41.5100 2528.0000
41.5200 2561.0000
41.5300 2454.0000
41.5400 2448.0000
41.5500 2412.0000
41.5600 2388.0000
41.5700 2450.0000
41.5800 2456.0000
41.5900 2437.0000
41.6000 2526.0000
41.6100 2489.0000
41.6200 2572.0000
41.6300 2591.0000
41.6400 2566.0000
41.6500 2682.0000
41.6600 2733.0000
41.6700 2740.0000
41.6800 2730.0000
41.6900 2722.0000
41.7000 2707.0000
41.7100 2658.0000
41.7200 2711.0000
41.7300 2672.0000
41.7400 2776.0000
41.7500 2750.0000
41.7600 2626.0000
41.7700 2677.0000
41.7800 2670.0000
41.7900 2753.0000
41.8000 2711.0000
41.8100 2694.0000
41.8200 2754.0000
41.8300 2833.0000
41.8400 3046.0000
41.8500 3361.0000
41.8600 3720.0000
41.8700 4084.0000
41.8800 4351.0000
41.8900 4516.0000
41.9000 4797.0000
41.9100 4722.0000
41.9200 4717.0000
41.9300 4726.0000
41.9400 4779.0000
41.9500 4741.0000
41.9600 4711.0000
41.9700 4509.0000
41.9800 4333.0000
41.9900 4312.0000
42.0000 4088.0000
42.0100 4093.0000
42.0200 3998.0000
42.0300 4077.0000
42.0400 3940.0000
42.0500 4151.0000
42.0600 4046.0000
42.0700 4125.0000
42.0800 4331.0000
42.0900 4533.0000
42.1000 4621.0000
42.1100 4674.0000
42.1200 4741.0000
42.1300 4823.0000
42.1400 4780.0000
42.1500 4715.0000
42.1600 4712.0000
42.1700 4704.0000
42.1800 4670.0000
42.1900 4647.0000
42.2000 4631.0000
42.2100 4700.0000
42.2200 4658.0000
42.2300 4716.0000
42.2400 4780.0000
42.2500 4806.0000
42.2600 4857.0000
42.2700 4971.0000
42.2800 4913.0000
42.2900 4896.0000
42.3000 4891.0000
42.3100 5013.0000
42.3200 5002.0000
42.3300 5099.0000
42.3400 5292.0000
42.3500 5337.0000
42.3600 5321.0000
42.3700 5184.0000
42.3800 5454.0000
42.3900 5499.0000
42.4000 5663.0000
42.4100 5639.0000
42.4200 5825.0000
42.4300 5779.0000
42.4400 5963.0000
42.4500 6007.0000
42.4600 5924.0000
42.4700 6250.0000
42.4800 6228.0000
42.4900 6290.0000
42.5000 6349.0000
42.5100 6533.0000
42.5200 6651.0000
42.5300 6762.0000
42.5400 6926.0000
42.5500 7048.0000
42.5600 7279.0000
42.5700 7391.0000
42.5800 7566.0000
42.5900 7825.0000
42.6000 8142.0000
42.6100 7980.0000
42.6200 8288.0000
42.6300 8614.0000
42.6400 8897.0000
42.6500 8977.0000
42.6600 9611.0000
42.6700 10072.0000
42.6800 10228.0000
42.6900 10824.0000
42.7000 11423.0000
42.7100 12102.0000
42.7200 12880.0000
42.7300 13582.0000
42.7400 14962.0000
42.7500 16567.0000
42.7600 18403.0000
42.7700 20322.0000
42.7800 23045.0000
42.7900 26606.0000
42.8000 31137.0000
42.8100 37398.0000
42.8200 45468.0000
42.8300 57101.0000
42.8400 74519.0000
42.8500 100463.0000
42.8600 146079.0000
42.8700 250442.0000
42.8800 631615.0000
42.8900 2555828.0000
42.9000 7622273.0000
42.9100 9688088.0000
42.9200 7502665.0000
42.9300 9197683.0000
42.9400 7420706.0000
42.9500 1629672.0000
42.9600 444459.0000
42.9700 212713.0000
42.9800 136809.0000
42.9900 101363.0000
43.0000 77439.0000
43.0100 58673.0000
43.0200 44943.0000
43.0300 36068.0000
43.0400 29613.0000
43.0500 25202.0000
43.0600 21977.0000
43.0700 19217.0000
43.0800 17259.0000
43.0900 15807.0000
43.1000 14434.0000
43.1100 13641.0000
43.1200 12663.0000
43.1300 12005.0000
43.1400 11391.0000
43.1500 10627.0000
43.1600 10345.0000
43.1700 9899.0000
43.1800 9695.0000
43.1900 9301.0000
43.2000 8728.0000
43.2100 8429.0000
43.2200 8193.0000
43.2300 8159.0000
43.2400 7819.0000
43.2500 7741.0000
43.2600 7607.0000
43.2700 7364.0000
43.2800 7254.0000
43.2900 6996.0000
43.3000 6909.0000
43.3100 6752.0000
43.3200 6796.0000
43.3300 6620.0000
43.3400 6469.0000
43.3500 6396.0000
43.3600 6196.0000
43.3700 6197.0000
43.3800 6155.0000
43.3900 6062.0000
43.4000 5834.0000
43.4100 5901.0000
43.4200 5717.0000
43.4300 5550.0000
43.4400 5415.0000
43.4500 5308.0000
43.4600 5195.0000
43.4700 5276.0000
43.4800 5243.0000
43.4900 5169.0000
43.5000 5023.0000
43.5100 4959.0000
43.5200 4869.0000
43.5300 4917.0000
43.5400 5006.0000
43.5500 4814.0000
43.5600 4741.0000
43.5700 4755.0000
43.5800 4738.0000
43.5900 4786.0000
43.6000 4801.0000
43.6100 4666.0000
43.6200 4605.0000
43.6300 4523.0000
43.6400 4547.0000
43.6500 4409.0000
43.6600 4380.0000
43.6700 4445.0000
43.6800 4457.0000
43.6900 4394.0000
43.7000 4479.0000
43.7100 4556.0000
43.7200 4556.0000
43.7300 4494.0000
43.7400 4361.0000
43.7500 4220.0000
43.7600 4089.0000
43.7700 3866.0000
43.7800 3860.0000
43.7900 3939.0000
43.8000 3846.0000
43.8100 3725.0000
43.8200 3800.0000
43.8300 3918.0000
43.8400 4034.0000
43.8500 4147.0000
43.8600 4186.0000
43.8700 4504.0000
43.8800 4562.0000
43.8900 4606.0000
43.9000 4436.0000
43.9100 4377.0000
43.9200 4578.0000
43.9300 4487.0000
43.9400 4569.0000
43.9500 4446.0000
43.9600 4209.0000
43.9700 3817.0000
43.9800 3401.0000
43.9900 3046.0000
44.0000 2659.0000
44.0100 2395.0000
44.0200 2306.0000
44.0300 2260.0000
44.0400 2127.0000
44.0500 2114.0000
44.0600 2082.0000
44.0700 2079.0000
44.0800 2029.0000
44.0900 2050.0000
44.1000 2029.0000
44.1100 2018.0000
44.1200 1973.0000
44.1300 1930.0000
44.1400 1925.0000
44.1500 1872.0000
44.1600 1993.0000
44.1700 1893.0000
44.1800 1885.0000
44.1900 1823.0000
44.2000 1769.0000
44.2100 1812.0000
44.2200 1739.0000
44.2300 1742.0000
44.2400 1817.0000
44.2500 1748.0000
44.2600 1751.0000
44.2700 1765.0000
44.2800 1695.0000
44.2900 1620.0000
44.3000 1650.0000
44.3100 1639.0000
44.3200 1664.0000
44.3300 1654.0000
44.3400 1606.0000
44.3500 1577.0000
44.3600 1537.0000
44.3700 1553.0000
44.3800 1569.0000
44.3900 1540.0000
44.4000 1459.0000
44.4100 1469.0000
44.4200 1491.0000
44.4300 1518.0000
44.4400 1503.0000
44.4500 1451.0000
44.4600 1442.0000
44.4700 1426.0000
44.4800 1405.0000
44.4900 1414.0000
44.5000 1387.0000
44.5100 1421.0000
44.5200 1373.0000
44.5300 1369.0000
44.5400 1328.0000
44.5500 1353.0000
44.5600 1363.0000
44.5700 1346.0000
44.5800 1357.0000
44.5900 1254.0000
44.6000 1319.0000
44.6100 1301.0000
44.6200 1290.0000
44.6300 1249.0000
44.6400 1233.0000
44.6500 1235.0000
44.6600 1189.0000
44.6700 1261.0000
44.6800 1218.0000
44.6900 1211.0000
44.7000 1220.0000
44.7100 1220.0000
44.7200 1134.0000
44.7300 1170.0000
44.7400 1142.0000
44.7500 1153.0000
44.7600 1183.0000
44.7700 1186.0000
44.7800 1130.0000
44.7900 1070.0000
44.8000 972.0000
44.8100 834.0000
44.8200 769.0000
44.8300 697.0000
44.8400 649.0000
44.8500 604.0000
44.8600 623.0000
44.8700 605.0000
44.8800 614.0000
44.8900 561.0000
44.9000 597.0000
44.9100 594.0000
44.9200 603.0000
44.9300 582.0000
44.9400 608.0000
44.9500 551.0000
44.9600 559.0000
44.9700 547.0000
44.9800 585.0000
44.9900 593.0000
45.0000 555.0000
45.0100 565.0000
45.0200 578.0000
45.0300 581.0000
45.0400 529.0000
45.0500 572.0000
45.0600 580.0000
45.0700 520.0000
45.0800 515.0000
45.0900 552.0000
45.1000 519.0000
45.1100 500.0000
45.1200 516.0000
45.1300 496.0000
45.1400 504.0000
45.1500 542.0000
45.1600 536.0000
45.1700 528.0000
45.1800 521.0000
45.1900 557.0000
45.2000 538.0000
45.2100 506.0000
45.2200 508.0000
45.2300 545.0000
45.2400 536.0000
45.2500 525.0000
45.2600 509.0000
45.2700 505.0000
45.2800 514.0000
45.2900 510.0000
45.3000 488.0000
45.3100 487.0000
45.3200 523.0000
45.3300 526.0000
45.3400 464.0000
45.3500 477.0000
45.3600 512.0000
45.3700 478.0000
45.3800 517.0000
45.3900 517.0000
45.4000 470.0000
45.4100 504.0000
45.4200 473.0000
45.4300 477.0000
45.4400 513.0000
45.4500 502.0000
45.4600 483.0000
45.4700 475.0000
45.4800 490.0000
45.4900 502.0000
45.5000 448.0000
45.5100 458.0000
45.5200 470.0000
45.5300 459.0000
45.5400 467.0000
45.5500 452.0000
45.5600 470.0000
45.5700 466.0000
45.5800 447.0000
45.5900 473.0000
45.6000 481.0000
45.6100 495.0000
45.6200 469.0000
45.6300 455.0000
45.6400 449.0000
45.6500 468.0000
45.6600 453.0000
45.6700 472.0000
45.6800 468.0000
45.6900 461.0000
45.7000 456.0000
45.7100 436.0000
45.7200 439.0000
45.7300 421.0000
45.7400 479.0000
45.7500 476.0000
45.7600 449.0000
45.7700 444.0000
45.7800 429.0000
45.7900 441.0000
45.8000 467.0000
45.8100 453.0000
45.8200 468.0000
45.8300 436.0000
45.8400 420.0000
45.8500 459.0000
45.8600 438.0000
45.8700 466.0000
45.8800 459.0000
45.8900 463.0000
45.9000 477.0000
45.9100 429.0000
45.9200 454.0000
45.9300 462.0000
45.9400 460.0000
45.9500 427.0000
45.9600 430.0000
45.9700 476.0000
45.9800 443.0000
45.9900 445.0000
46.0000 451.0000
46.0100 456.0000
46.0200 443.0000
46.0300 435.0000
46.0400 440.0000
46.0500 434.0000
46.0600 450.0000
46.0700 435.0000
46.0800 433.0000
46.0900 471.0000
46.1000 422.0000
46.1100 465.0000
46.1200 429.0000
46.1300 435.0000
46.1400 460.0000
46.1500 469.0000
46.1600 428.0000
46.1700 446.0000
46.1800 476.0000
46.1900 448.0000
46.2000 455.0000
46.2100 445.0000
46.2200 427.0000
46.2300 454.0000
46.2400 445.0000
46.2500 474.0000
46.2600 459.0000
46.2700 443.0000
46.2800 448.0000
46.2900 458.0000
46.3000 478.0000
46.3100 449.0000
46.3200 490.0000
46.3300 447.0000
46.3400 431.0000
46.3500 478.0000
46.3600 493.0000
46.3700 453.0000
46.3800 455.0000
46.3900 497.0000
46.4000 465.0000
46.4100 459.0000
46.4200 479.0000
46.4300 484.0000
46.4400 460.0000
46.4500 489.0000
46.4600 493.0000
46.4700 493.0000
46.4800 493.0000
46.4900 530.0000
46.5000 531.0000
46.5100 519.0000
46.5200 539.0000
46.5300 494.0000
46.5400 519.0000
46.5500 540.0000
46.5600 503.0000
46.5700 520.0000
46.5800 530.0000
46.5900 530.0000
46.6000 522.0000
46.6100 556.0000
46.6200 547.0000
46.6300 542.0000
46.6400 551.0000
46.6500 555.0000
46.6600 581.0000
46.6700 554.0000
46.6800 593.0000
46.6900 581.0000
46.7000 574.0000
46.7100 612.0000
46.7200 602.0000
46.7300 600.0000
46.7400 610.0000
46.7500 611.0000
46.7600 626.0000
46.7700 615.0000
46.7800 597.0000
46.7900 650.0000
46.8000 633.0000
46.8100 641.0000
46.8200 650.0000
46.8300 651.0000
46.8400 664.0000
46.8500 694.0000
46.8600 722.0000
46.8700 737.0000
46.8800 743.0000
46.8900 729.0000
46.9000 730.0000
46.9100 733.0000
46.9200 765.0000
46.9300 781.0000
46.9400 780.0000
46.9500 726.0000
46.9600 790.0000
46.9700 767.0000
46.9800 828.0000
46.9900 835.0000
47.0000 775.0000
47.0100 786.0000
47.0200 840.0000
47.0300 756.0000
47.0400 823.0000
47.0500 880.0000
47.0600 874.0000
47.0700 807.0000
47.0800 857.0000
47.0900 819.0000
47.1000 813.0000
47.1100 891.0000
47.1200 826.0000
47.1300 826.0000
47.1400 876.0000
47.1500 915.0000
47.1600 857.0000
47.1700 857.0000
47.1800 859.0000
47.1900 887.0000
47.2000 821.0000
47.2100 871.0000
47.2200 865.0000
47.2300 909.0000
47.2400 817.0000
47.2500 876.0000
47.2600 847.0000
47.2700 891.0000
47.2800 894.0000
47.2900 857.0000
47.3000 850.0000
47.3100 867.0000
47.3200 854.0000
47.3300 831.0000
47.3400 885.0000
47.3500 875.0000
47.3600 870.0000
47.3700 817.0000
47.3800 895.0000
47.3900 855.0000
47.4000 882.0000
47.4100 810.0000
47.4200 799.0000
47.4300 839.0000
47.4400 801.0000
47.4500 847.0000
47.4600 831.0000
47.4700 834.0000
47.4800 846.0000
47.4900 793.0000
47.5000 827.0000
47.5100 827.0000
47.5200 796.0000
47.5300 801.0000
47.5400 794.0000
47.5500 810.0000
47.5600 815.0000
47.5700 815.0000
47.5800 825.0000
47.5900 788.0000
47.6000 807.0000
47.6100 724.0000
47.6200 770.0000
47.6300 797.0000
47.6400 758.0000
47.6500 757.0000
47.6600 763.0000
47.6700 792.0000
47.6800 824.0000
47.6900 759.0000
47.7000 698.0000
47.7100 756.0000
47.7200 767.0000
47.7300 754.0000
47.7400 762.0000
47.7500 703.0000
47.7600 762.0000
47.7700 740.0000
47.7800 755.0000
47.7900 745.0000
47.8000 745.0000
47.8100 712.0000
47.8200 715.0000
47.8300 699.0000
47.8400 716.0000
47.8500 723.0000
47.8600 734.0000
47.8700 755.0000
47.8800 720.0000
47.8900 724.0000
47.9000 726.0000
47.9100 708.0000
47.9200 757.0000
47.9300 720.0000
47.9400 676.0000
47.9500 711.0000
47.9600 740.0000
47.9700 672.0000
47.9800 688.0000
47.9900 729.0000
48.0000 745.0000
48.0100 708.0000
48.0200 730.0000
48.0300 707.0000
48.0400 733.0000
48.0500 718.0000
48.0600 745.0000
48.0700 796.0000
48.0800 805.0000
48.0900 779.0000
48.1000 751.0000
48.1100 746.0000
48.1200 783.0000
48.1300 760.0000
48.1400 782.0000
48.1500 800.0000
48.1600 812.0000
48.1700 779.0000
48.1800 795.0000
48.1900 830.0000
48.2000 826.0000
48.2100 816.0000
48.2200 821.0000
48.2300 810.0000
48.2400 831.0000
48.2500 914.0000
48.2600 859.0000
48.2700 891.0000
48.2800 921.0000
48.2900 942.0000
48.3000 991.0000
48.3100 959.0000
48.3200 937.0000
48.3300 955.0000
48.3400 970.0000
48.3500 975.0000
48.3600 1004.0000
48.3700 1012.0000
48.3800 1035.0000
48.3900 1075.0000
48.4000 1102.0000
48.4100 1045.0000
48.4200 1146.0000
48.4300 1076.0000
48.4400 1108.0000
48.4500 1171.0000
48.4600 1182.0000
48.4700 1214.0000
48.4800 1243.0000
48.4900 1211.0000
48.5000 1232.0000
48.5100 1294.0000
48.5200 1333.0000
48.5300 1377.0000
48.5400 1408.0000
48.5500 1397.0000
48.5600 1423.0000
48.5700 1473.0000
48.5800 1530.0000
48.5900 1524.0000
48.6000 1630.0000
48.6100 1646.0000
48.6200 1696.0000
48.6300 1727.0000
48.6400 1763.0000
48.6500 1916.0000
48.6600 1946.0000
48.6700 1921.0000
48.6800 2009.0000
48.6900 1940.0000
48.7000 2242.0000
48.7100 2252.0000
48.7200 2203.0000
48.7300 2361.0000
48.7400 2424.0000
48.7500 2453.0000
48.7600 2505.0000
48.7700 2523.0000
48.7800 2652.0000
48.7900 2827.0000
48.8000 2855.0000
48.8100 2877.0000
48.8200 2966.0000
48.8300 3044.0000
48.8400 3172.0000
48.8500 3186.0000
48.8600 3208.0000
48.8700 3327.0000
48.8800 3389.0000
48.8900 3432.0000
48.9000 3469.0000
48.9100 3634.0000
48.9200 3674.0000
48.9300 3787.0000
48.9400 3789.0000
48.9500 3816.0000
48.9600 3874.0000
48.9700 3805.0000
48.9800 3930.0000
48.9900 3888.0000
49.0000 4043.0000
49.0100 3982.0000
49.0200 4022.0000
49.0300 3945.0000
49.0400 4015.0000
49.0500 4076.0000
49.0600 4041.0000
49.0700 4025.0000
49.0800 3992.0000
49.0900 4020.0000
49.1000 4035.0000
49.1100 3996.0000
49.1200 3916.0000
49.1300 3916.0000
49.1400 3921.0000
49.1500 3824.0000
49.1600 3800.0000
49.1700 3712.0000
49.1800 3594.0000
49.1900 3623.0000
49.2000 3515.0000
49.2100 3492.0000
49.2200 3429.0000
49.2300 3352.0000
49.2400 3381.0000
49.2500 3149.0000
49.2600 3153.0000
49.2700 3079.0000
49.2800 3024.0000
49.2900 2954.0000
49.3000 2826.0000
49.3100 2794.0000
49.3200 2731.0000
49.3300 2646.0000
49.3400 2614.0000
49.3500 2430.0000
49.3600 2380.0000
49.3700 2303.0000
49.3800 2216.0000
49.3900 2079.0000
49.4000 2004.0000
49.4100 1992.0000
49.4200 1923.0000
49.4300 1902.0000
49.4400 1762.0000
49.4500 1657.0000
49.4600 1664.0000
49.4700 1537.0000
49.4800 1456.0000
49.4900 1452.0000
49.5000 1416.0000
49.5100 1310.0000
49.5200 1288.0000
49.5300 1249.0000
49.5400 1171.0000
49.5500 1112.0000
49.5600 1079.0000
49.5700 1081.0000
49.5800 1021.0000
49.5900 955.0000
49.6000 894.0000
49.6100 886.0000
49.6200 862.0000
49.6300 828.0000
49.6400 821.0000
49.6500 780.0000
49.6600 753.0000
49.6700 708.0000
49.6800 743.0000
49.6900 678.0000
49.7000 688.0000
49.7100 612.0000
49.7200 592.0000
49.7300 616.0000
49.7400 603.0000
49.7500 563.0000
49.7600 553.0000
49.7700 590.0000
49.7800 556.0000
49.7900 518.0000
49.8000 512.0000
49.8100 553.0000
49.8200 514.0000
49.8300 489.0000
49.8400 489.0000
49.8500 479.0000
49.8600 462.0000
49.8700 437.0000
49.8800 442.0000
49.8900 472.0000
49.9000 466.0000
49.9100 406.0000
49.9200 440.0000
49.9300 392.0000
49.9400 409.0000
49.9500 394.0000
49.9600 362.0000
49.9700 368.0000
49.9800 374.0000
49.9900 355.0000
50.0000 347.0000
50.0100 344.0000
50.0200 370.0000
50.0300 375.0000
50.0400 327.0000
50.0500 335.0000
50.0600 328.0000
50.0700 289.0000
50.0800 316.0000
50.0900 325.0000
50.1000 316.0000
50.1100 297.0000
50.1200 320.0000
50.1300 277.0000
50.1400 277.0000
50.1500 285.0000
50.1600 290.0000
50.1700 289.0000
50.1800 306.0000
50.1900 289.0000
50.2000 262.0000
50.2100 249.0000
50.2200 276.0000
50.2300 229.0000
50.2400 273.0000
50.2500 275.0000
50.2600 262.0000
50.2700 234.0000
50.2800 235.0000
50.2900 267.0000
50.3000 243.0000
50.3100 241.0000
50.3200 250.0000
50.3300 205.0000
50.3400 247.0000
50.3500 238.0000
50.3600 237.0000
50.3700 224.0000
50.3800 228.0000
50.3900 210.0000
50.4000 244.0000
50.4100 212.0000
50.4200 220.0000
50.4300 201.0000
50.4400 203.0000
50.4500 219.0000
50.4600 215.0000
50.4700 193.0000
50.4800 212.0000
50.4900 239.0000
50.5000 227.0000
50.5100 203.0000
50.5200 215.0000
50.5300 193.0000
50.5400 196.0000
50.5500 228.0000
50.5600 219.0000
50.5700 197.0000
50.5800 213.0000
50.5900 191.0000
50.6000 189.0000
50.6100 182.0000
50.6200 184.0000
50.6300 183.0000
50.6400 163.0000
50.6500 189.0000
50.6600 196.0000
50.6700 192.0000
50.6800 175.0000
50.6900 176.0000
50.7000 159.0000
50.7100 161.0000
50.7200 188.0000
50.7300 182.0000
50.7400 182.0000
50.7500 168.0000
50.7600 186.0000
50.7700 163.0000
50.7800 178.0000
50.7900 180.0000
50.8000 170.0000
50.8100 189.0000
50.8200 194.0000
50.8300 170.0000
50.8400 137.0000
50.8500 155.0000
50.8600 185.0000
50.8700 180.0000
50.8800 175.0000
50.8900 154.0000
50.9000 150.0000
50.9100 174.0000
50.9200 180.0000
50.9300 150.0000
50.9400 161.0000
50.9500 154.0000
50.9600 167.0000
50.9700 178.0000
50.9800 165.0000
50.9900 161.0000
51.0000 167.0000
51.0100 158.0000
51.0200 168.0000
51.0300 155.0000
51.0400 142.0000
51.0500 164.0000
51.0600 150.0000
51.0700 159.0000
51.0800 144.0000
51.0900 148.0000
51.1000 167.0000
51.1100 153.0000
51.1200 157.0000
51.1300 151.0000
51.1400 146.0000
51.1500 144.0000
51.1600 142.0000
51.1700 167.0000
51.1800 140.0000
51.1900 127.0000
51.2000 139.0000
51.2100 159.0000
51.2200 139.0000
51.2300 161.0000
51.2400 146.0000
51.2500 172.0000
51.2600 162.0000
51.2700 152.0000
51.2800 163.0000
51.2900 140.0000
51.3000 159.0000
51.3100 130.0000
51.3200 140.0000
51.3300 157.0000
51.3400 152.0000
51.3500 134.0000
51.3600 126.0000
51.3700 148.0000
51.3800 139.0000
51.3900 153.0000
51.4000 136.0000
51.4100 138.0000
51.4200 154.0000
51.4300 155.0000
51.4400 160.0000
51.4500 144.0000
51.4600 140.0000
51.4700 159.0000
51.4800 146.0000
51.4900 142.0000
51.5000 126.0000
51.5100 145.0000
51.5200 151.0000
51.5300 147.0000
51.5400 138.0000
51.5500 127.0000
51.5600 120.0000
51.5700 122.0000
51.5800 116.0000
51.5900 150.0000
51.6000 154.0000
51.6100 114.0000
51.6200 142.0000
51.6300 129.0000
51.6400 144.0000
51.6500 131.0000
51.6600 133.0000
51.6700 138.0000
51.6800 133.0000
51.6900 125.0000
51.7000 108.0000
51.7100 123.0000
51.7200 133.0000
51.7300 117.0000
51.7400 150.0000
51.7500 126.0000
51.7600 133.0000
51.7700 131.0000
51.7800 132.0000
51.7900 132.0000
51.8000 155.0000
51.8100 146.0000
51.8200 149.0000
51.8300 130.0000
51.8400 118.0000
51.8500 137.0000
51.8600 142.0000
51.8700 132.0000
51.8800 131.0000
51.8900 131.0000
51.9000 105.0000
51.9100 117.0000
51.9200 137.0000
51.9300 147.0000
51.9400 134.0000
51.9500 134.0000
51.9600 134.0000
51.9700 128.0000
51.9800 127.0000
51.9900 126.0000
52.0000 145.0000
52.0100 122.0000
52.0200 134.0000
52.0300 142.0000
52.0400 138.0000
52.0500 138.0000
52.0600 145.0000
52.0700 117.0000
52.0800 123.0000
52.0900 112.0000
52.1000 128.0000
52.1100 134.0000
52.1200 127.0000
52.1300 134.0000
52.1400 122.0000
52.1500 127.0000
52.1600 125.0000
52.1700 134.0000
52.1800 136.0000
52.1900 126.0000
52.2000 126.0000
52.2100 128.0000
52.2200 124.0000
52.2300 133.0000
52.2400 133.0000
52.2500 133.0000
52.2600 133.0000
52.2700 144.0000
52.2800 143.0000
52.2900 139.0000
52.3000 133.0000
52.3100 132.0000
52.3200 118.0000
52.3300 142.0000
52.3400 120.0000
52.3500 116.0000
52.3600 137.0000
52.3700 120.0000
52.3800 126.0000
52.3900 121.0000
52.4000 120.0000
52.4100 119.0000
52.4200 137.0000
52.4300 109.0000
52.4400 127.0000
52.4500 121.0000
52.4600 128.0000
52.4700 115.0000
52.4800 124.0000
52.4900 126.0000
52.5000 119.0000
52.5100 115.0000
52.5200 128.0000
52.5300 118.0000
52.5400 126.0000
52.5500 133.0000
52.5600 123.0000
52.5700 114.0000
52.5800 144.0000
52.5900 113.0000
52.6000 148.0000
52.6100 145.0000
52.6200 138.0000
52.6300 110.0000
52.6400 149.0000
52.6500 129.0000
52.6600 139.0000
52.6700 135.0000
52.6800 128.0000
52.6900 125.0000
52.7000 121.0000
52.7100 129.0000
52.7200 151.0000
52.7300 141.0000
52.7400 136.0000
52.7500 132.0000
52.7600 121.0000
52.7700 128.0000
52.7800 132.0000
52.7900 127.0000
52.8000 113.0000
52.8100 114.0000
52.8200 116.0000
52.8300 119.0000
52.8400 120.0000
52.8500 127.0000
52.8600 124.0000
52.8700 125.0000
52.8800 120.0000
52.8900 112.0000
52.9000 111.0000
52.9100 133.0000
52.9200 129.0000
52.9300 160.0000
52.9400 125.0000
52.9500 135.0000
52.9600 133.0000
52.9700 126.0000
52.9800 106.0000
52.9900 126.0000
53.0000 127.0000
53.0100 140.0000
53.0200 123.0000
53.0300 114.0000
53.0400 105.0000
53.0500 124.0000
53.0600 129.0000
53.0700 126.0000
53.0800 130.0000
53.0900 123.0000
53.1000 144.0000
53.1100 128.0000
53.1200 112.0000
53.1300 122.0000
53.1400 127.0000
53.1500 125.0000
53.1600 119.0000
53.1700 126.0000
53.1800 124.0000
53.1900 108.0000
53.2000 110.0000
53.2100 115.0000
53.2200 121.0000
53.2300 112.0000
53.2400 128.0000
53.2500 128.0000
53.2600 108.0000
53.2700 104.0000
53.2800 111.0000
53.2900 124.0000
53.3000 124.0000
53.3100 136.0000
53.3200 120.0000
53.3300 124.0000
53.3400 116.0000
53.3500 108.0000
53.3600 127.0000
53.3700 121.0000
53.3800 117.0000
53.3900 126.0000
53.4000 131.0000
53.4100 118.0000
53.4200 114.0000
53.4300 115.0000
53.4400 119.0000
53.4500 105.0000
53.4600 136.0000
53.4700 125.0000
53.4800 112.0000
53.4900 120.0000
53.5000 138.0000
53.5100 129.0000
53.5200 123.0000
53.5300 126.0000
53.5400 136.0000
53.5500 114.0000
53.5600 108.0000
53.5700 114.0000
53.5800 132.0000
53.5900 125.0000
53.6000 125.0000
53.6100 109.0000
53.6200 114.0000
53.6300 123.0000
53.6400 132.0000
53.6500 112.0000
53.6600 113.0000
53.6700 118.0000
53.6800 128.0000
53.6900 118.0000
53.7000 119.0000
53.7100 124.0000
53.7200 133.0000
53.7300 129.0000
53.7400 118.0000
53.7500 138.0000
53.7600 136.0000
53.7700 117.0000
53.7800 97.0000
53.7900 121.0000
53.8000 108.0000
53.8100 108.0000
53.8200 118.0000
53.8300 108.0000
53.8400 128.0000
53.8500 129.0000
53.8600 103.0000
53.8700 132.0000
53.8800 105.0000
53.8900 124.0000
53.9000 131.0000
53.9100 105.0000
53.9200 108.0000
53.9300 114.0000
53.9400 124.0000
53.9500 120.0000
53.9600 116.0000
53.9700 119.0000
53.9800 116.0000
53.9900 114.0000
54.0000 126.0000
54.0100 100.0000
54.0200 114.0000
54.0300 99.0000
54.0400 120.0000
54.0500 107.0000
54.0600 110.0000
54.0700 111.0000
54.0800 104.0000
54.0900 103.0000
54.1000 110.0000
54.1100 117.0000
54.1200 100.0000
54.1300 122.0000
54.1400 119.0000
54.1500 101.0000
54.1600 103.0000
54.1700 109.0000
54.1800 124.0000
54.1900 123.0000
54.2000 108.0000
54.2100 109.0000
54.2200 132.0000
54.2300 107.0000
54.2400 123.0000
54.2500 126.0000
54.2600 97.0000
54.2700 101.0000
54.2800 126.0000
54.2900 115.0000
54.3000 92.0000
54.3100 113.0000
54.3200 117.0000
54.3300 90.0000
54.3400 111.0000
54.3500 103.0000
54.3600 111.0000
54.3700 114.0000
54.3800 113.0000
54.3900 104.0000
54.4000 110.0000
54.4100 106.0000
54.4200 110.0000
54.4300 105.0000
54.4400 106.0000
54.4500 91.0000
54.4600 104.0000
54.4700 112.0000
54.4800 84.0000
54.4900 101.0000
54.5000 101.0000
54.5100 109.0000
54.5200 101.0000
54.5300 111.0000
54.5400 115.0000
54.5500 121.0000
54.5600 102.0000
54.5700 105.0000
54.5800 105.0000
54.5900 106.0000
54.6000 112.0000
54.6100 97.0000
54.6200 118.0000
54.6300 114.0000
54.6400 90.0000
54.6500 98.0000
54.6600 114.0000
54.6700 124.0000
54.6800 121.0000
54.6900 100.0000
54.7000 98.0000
54.7100 96.0000
54.7200 112.0000
54.7300 109.0000
54.7400 102.0000
54.7500 96.0000
54.7600 101.0000
54.7700 103.0000
54.7800 105.0000
54.7900 109.0000
54.8000 110.0000
54.8100 120.0000
54.8200 119.0000
54.8300 112.0000
54.8400 112.0000
54.8500 119.0000
54.8600 111.0000
54.8700 98.0000
54.8800 110.0000
54.8900 96.0000
54.9000 109.0000
54.9100 118.0000
54.9200 90.0000
54.9300 96.0000
54.9400 107.0000
54.9500 116.0000
54.9600 108.0000
54.9700 128.0000
54.9800 117.0000
54.9900 100.0000
55.0000 94.0000
55.0100 100.0000
55.0200 121.0000
55.0300 117.0000
55.0400 115.0000
55.0500 98.0000
55.0600 104.0000
55.0700 114.0000
55.0800 113.0000
55.0900 113.0000
55.1000 102.0000
55.1100 123.0000
55.1200 111.0000
55.1300 106.0000
55.1400 90.0000
55.1500 102.0000
55.1600 119.0000
55.1700 125.0000
55.1800 115.0000
55.1900 108.0000
55.2000 106.0000
55.2100 124.0000
55.2200 97.0000
55.2300 103.0000
55.2400 104.0000
55.2500 102.0000
55.2600 115.0000
55.2700 102.0000
55.2800 111.0000
55.2900 117.0000
55.3000 105.0000
55.3100 112.0000
55.3200 117.0000
55.3300 128.0000
55.3400 102.0000
55.3500 114.0000
55.3600 121.0000
55.3700 113.0000
55.3800 116.0000
55.3900 120.0000
55.4000 112.0000
55.4100 123.0000
55.4200 118.0000
55.4300 105.0000
55.4400 111.0000
55.4500 107.0000
55.4600 91.0000
55.4700 120.0000
55.4800 116.0000
55.4900 108.0000
55.5000 109.0000
55.5100 105.0000
55.5200 109.0000
55.5300 117.0000
55.5400 104.0000
55.5500 107.0000
55.5600 112.0000
55.5700 128.0000
55.5800 102.0000
55.5900 119.0000
55.6000 115.0000
55.6100 101.0000
55.6200 116.0000
55.6300 119.0000
55.6400 109.0000
55.6500 118.0000
55.6600 117.0000
55.6700 104.0000
55.6800 99.0000
55.6900 122.0000
55.7000 109.0000
55.7100 101.0000
55.7200 100.0000
55.7300 116.0000
55.7400 110.0000
55.7500 109.0000
55.7600 99.0000
55.7700 102.0000
55.7800 117.0000
55.7900 100.0000
55.8000 106.0000
55.8100 132.0000
55.8200 103.0000
55.8300 111.0000
55.8400 98.0000
55.8500 114.0000
55.8600 103.0000
55.8700 108.0000
55.8800 128.0000
55.8900 109.0000
55.9000 99.0000
55.9100 97.0000
55.9200 91.0000
55.9300 98.0000
55.9400 90.0000
55.9500 110.0000
55.9600 97.0000
55.9700 106.0000
55.9800 117.0000
55.9900 104.0000
56.0000 112.0000
56.0100 87.0000
56.0200 108.0000
56.0300 117.0000
56.0400 102.0000
56.0500 114.0000
56.0600 99.0000
56.0700 110.0000
56.0800 111.0000
56.0900 110.0000
56.1000 107.0000
56.1100 101.0000
56.1200 100.0000
56.1300 88.0000
56.1400 95.0000
56.1500 95.0000
56.1600 120.0000
56.1700 118.0000
56.1800 106.0000
56.1900 111.0000
56.2000 106.0000
56.2100 105.0000
56.2200 94.0000
56.2300 101.0000
56.2400 111.0000
56.2500 101.0000
56.2600 100.0000
56.2700 106.0000
56.2800 111.0000
56.2900 111.0000
56.3000 120.0000
56.3100 105.0000
56.3200 102.0000
56.3300 88.0000
56.3400 125.0000
56.3500 102.0000
56.3600 103.0000
56.3700 103.0000
56.3800 93.0000
56.3900 98.0000
56.4000 105.0000
56.4100 88.0000
56.4200 102.0000
56.4300 104.0000
56.4400 111.0000
56.4500 117.0000
56.4600 103.0000
56.4700 102.0000
56.4800 115.0000
56.4900 107.0000
56.5000 126.0000
56.5100 118.0000
56.5200 95.0000
56.5300 100.0000
56.5400 100.0000
56.5500 105.0000
56.5600 100.0000
56.5700 100.0000
56.5800 94.0000
56.5900 107.0000
56.6000 97.0000
56.6100 96.0000
56.6200 86.0000
56.6300 105.0000
56.6400 105.0000
56.6500 92.0000
56.6600 118.0000
56.6700 93.0000
56.6800 93.0000
56.6900 88.0000
56.7000 99.0000
56.7100 114.0000
56.7200 115.0000
56.7300 112.0000
56.7400 109.0000
56.7500 113.0000
56.7600 95.0000
56.7700 99.0000
56.7800 97.0000
56.7900 90.0000
56.8000 106.0000
56.8100 99.0000
56.8200 94.0000
56.8300 93.0000
56.8400 108.0000
56.8500 101.0000
56.8600 104.0000
56.8700 98.0000
56.8800 94.0000
56.8900 118.0000
56.9000 118.0000
56.9100 98.0000
56.9200 97.0000
56.9300 99.0000
56.9400 90.0000
56.9500 111.0000
56.9600 105.0000
56.9700 92.0000
56.9800 107.0000
56.9900 88.0000
57.0000 100.0000
57.0100 103.0000
57.0200 89.0000
57.0300 104.0000
57.0400 97.0000
57.0500 97.0000
57.0600 97.0000
57.0700 101.0000
57.0800 94.0000
57.0900 86.0000
57.1000 100.0000
57.1100 92.0000
57.1200 109.0000
57.1300 107.0000
57.1400 109.0000
57.1500 106.0000
57.1600 99.0000
57.1700 111.0000
57.1800 95.0000
57.1900 108.0000
57.2000 107.0000
57.2100 99.0000
57.2200 100.0000
57.2300 104.0000
57.2400 108.0000
57.2500 98.0000
57.2600 106.0000
57.2700 112.0000
57.2800 99.0000
57.2900 94.0000
57.3000 102.0000
57.3100 92.0000
57.3200 93.0000
57.3300 115.0000
57.3400 102.0000
57.3500 86.0000
57.3600 113.0000
57.3700 98.0000
57.3800 96.0000
57.3900 112.0000
57.4000 109.0000
57.4100 98.0000
57.4200 95.0000
57.4300 97.0000
57.4400 95.0000
57.4500 93.0000
57.4600 113.0000
57.4700 98.0000
57.4800 101.0000
57.4900 107.0000
57.5000 108.0000
57.5100 104.0000
57.5200 98.0000
57.5300 105.0000
57.5400 94.0000
57.5500 99.0000
57.5600 95.0000
57.5700 95.0000
57.5800 96.0000
57.5900 99.0000
57.6000 109.0000
57.6100 90.0000
57.6200 120.0000
57.6300 99.0000
57.6400 104.0000
57.6500 112.0000
57.6600 89.0000
57.6700 116.0000
57.6800 111.0000
57.6900 114.0000
57.7000 104.0000
57.7100 115.0000
57.7200 110.0000
57.7300 120.0000
57.7400 116.0000
57.7500 111.0000
57.7600 97.0000
57.7700 95.0000
57.7800 110.0000
57.7900 114.0000
57.8000 105.0000
57.8100 110.0000
57.8200 107.0000
57.8300 93.0000
57.8400 105.0000
57.8500 94.0000
57.8600 118.0000
57.8700 99.0000
57.8800 102.0000
57.8900 109.0000
57.9000 108.0000
57.9100 102.0000
57.9200 95.0000
57.9300 108.0000
57.9400 104.0000
57.9500 100.0000
57.9600 109.0000
57.9700 97.0000
57.9800 89.0000
57.9900 105.0000
58.0000 98.0000
58.0100 106.0000
58.0200 90.0000
58.0300 103.0000
58.0400 86.0000
58.0500 90.0000
58.0600 111.0000
58.0700 98.0000
58.0800 82.0000
58.0900 117.0000
58.1000 90.0000
58.1100 104.0000
58.1200 91.0000
58.1300 89.0000
58.1400 96.0000
58.1500 96.0000
58.1600 95.0000
58.1700 125.0000
58.1800 115.0000
58.1900 109.0000
58.2000 110.0000
58.2100 96.0000
58.2200 87.0000
58.2300 97.0000
58.2400 102.0000
58.2500 95.0000
58.2600 108.0000
58.2700 107.0000
58.2800 91.0000
58.2900 121.0000
58.3000 97.0000
58.3100 102.0000
58.3200 102.0000
58.3300 101.0000
58.3400 88.0000
58.3500 94.0000
58.3600 106.0000
58.3700 88.0000
58.3800 92.0000
58.3900 94.0000
58.4000 86.0000
58.4100 94.0000
58.4200 100.0000
58.4300 81.0000
58.4400 92.0000
58.4500 110.0000
58.4600 92.0000
58.4700 96.0000
58.4800 99.0000
58.4900 102.0000
58.5000 101.0000
58.5100 109.0000
58.5200 92.0000
58.5300 99.0000
58.5400 74.0000
58.5500 98.0000
58.5600 91.0000
58.5700 93.0000
58.5800 92.0000
58.5900 93.0000
58.6000 102.0000
58.6100 96.0000
58.6200 98.0000
58.6300 105.0000
58.6400 101.0000
58.6500 107.0000
58.6600 115.0000
58.6700 86.0000
58.6800 98.0000
58.6900 100.0000
58.7000 93.0000
58.7100 106.0000
58.7200 96.0000
58.7300 87.0000
58.7400 92.0000
58.7500 93.0000
58.7600 101.0000
58.7700 108.0000
58.7800 97.0000
58.7900 102.0000
58.8000 92.0000
58.8100 103.0000
58.8200 89.0000
58.8300 101.0000
58.8400 93.0000
58.8500 97.0000
58.8600 84.0000
58.8700 81.0000
58.8800 72.0000
58.8900 95.0000
58.9000 107.0000
58.9100 91.0000
58.9200 91.0000
58.9300 104.0000
58.9400 95.0000
58.9500 109.0000
58.9600 86.0000
58.9700 95.0000
58.9800 102.0000
58.9900 94.0000
59.0000 87.0000
59.0100 92.0000
59.0200 102.0000
59.0300 104.0000
59.0400 93.0000
59.0500 100.0000
59.0600 88.0000
59.0700 108.0000
59.0800 87.0000
59.0900 99.0000
59.1000 104.0000
59.1100 96.0000
59.1200 92.0000
59.1300 95.0000
59.1400 93.0000
59.1500 89.0000
59.1600 104.0000
59.1700 95.0000
59.1800 123.0000
59.1900 89.0000
59.2000 90.0000
59.2100 77.0000
59.2200 100.0000
59.2300 106.0000
59.2400 86.0000
59.2500 96.0000
59.2600 93.0000
59.2700 98.0000
59.2800 118.0000
59.2900 102.0000
59.3000 106.0000
59.3100 104.0000
59.3200 101.0000
59.3300 86.0000
59.3400 76.0000
59.3500 85.0000
59.3600 80.0000
59.3700 94.0000
59.3800 103.0000
59.3900 105.0000
59.4000 99.0000
59.4100 103.0000
59.4200 93.0000
59.4300 101.0000
59.4400 100.0000
59.4500 94.0000
59.4600 100.0000
59.4700 84.0000
59.4800 90.0000
59.4900 95.0000
59.5000 96.0000
59.5100 101.0000
59.5200 95.0000
59.5300 102.0000
59.5400 106.0000
59.5500 99.0000
59.5600 103.0000
59.5700 91.0000
59.5800 115.0000
59.5900 100.0000
59.6000 103.0000
59.6100 91.0000
59.6200 100.0000
59.6300 103.0000
59.6400 100.0000
59.6500 93.0000
59.6600 96.0000
59.6700 82.0000
59.6800 106.0000
59.6900 102.0000
59.7000 96.0000
59.7100 101.0000
59.7200 84.0000
59.7300 109.0000
59.7400 88.0000
59.7500 81.0000
59.7600 92.0000
59.7700 112.0000
59.7800 83.0000
59.7900 98.0000
59.8000 98.0000
59.8100 99.0000
59.8200 94.0000
59.8300 101.0000
59.8400 106.0000
59.8500 103.0000
59.8600 115.0000
59.8700 97.0000
59.8800 92.0000
59.8900 94.0000
59.9000 113.0000
59.9100 114.0000
59.9200 118.0000
59.9300 108.0000
59.9400 97.0000
59.9500 102.0000
59.9600 110.0000
59.9700 119.0000
59.9800 98.0000
59.9900 108.0000
60.0000 132.0000
60.0100 116.0000
60.0200 120.0000
60.0300 116.0000
60.0400 135.0000
60.0500 125.0000
60.0600 115.0000
60.0700 138.0000
60.0800 127.0000
60.0900 117.0000
60.1000 124.0000
60.1100 145.0000
60.1200 158.0000
60.1300 136.0000
60.1400 135.0000
60.1500 144.0000
60.1600 136.0000
60.1700 143.0000
60.1800 142.0000
60.1900 141.0000
60.2000 150.0000
60.2100 150.0000
60.2200 144.0000
60.2300 138.0000
60.2400 152.0000
60.2500 143.0000
60.2600 153.0000
60.2700 142.0000
60.2800 152.0000
60.2900 135.0000
60.3000 151.0000
60.3100 142.0000
60.3200 151.0000
60.3300 148.0000
60.3400 136.0000
60.3500 143.0000
60.3600 139.0000
60.3700 125.0000
60.3800 133.0000
60.3900 144.0000
60.4000 146.0000
60.4100 134.0000
60.4200 123.0000
60.4300 138.0000
60.4400 129.0000
60.4500 123.0000
60.4600 125.0000
60.4700 116.0000
60.4800 123.0000
60.4900 124.0000
60.5000 118.0000
60.5100 118.0000
60.5200 111.0000
60.5300 102.0000
60.5400 99.0000
60.5500 110.0000
60.5600 109.0000
60.5700 108.0000
60.5800 97.0000
60.5900 101.0000
60.6000 98.0000
60.6100 111.0000
60.6200 87.0000
60.6300 93.0000
60.6400 101.0000
60.6500 101.0000
60.6600 106.0000
60.6700 118.0000
60.6800 95.0000
60.6900 86.0000
60.7000 108.0000
60.7100 117.0000
60.7200 127.0000
60.7300 86.0000
60.7400 115.0000
60.7500 78.0000
60.7600 104.0000
60.7700 102.0000
60.7800 93.0000
60.7900 107.0000
60.8000 112.0000
60.8100 86.0000
60.8200 93.0000
60.8300 85.0000
60.8400 94.0000
60.8500 91.0000
60.8600 88.0000
60.8700 94.0000
60.8800 106.0000
60.8900 116.0000
60.9000 100.0000
60.9100 93.0000
60.9200 93.0000
60.9300 96.0000
60.9400 86.0000
60.9500 113.0000
60.9600 103.0000
60.9700 98.0000
60.9800 105.0000
60.9900 91.0000
61.0000 81.0000
61.0100 94.0000
61.0200 86.0000
61.0300 102.0000
61.0400 93.0000
61.0500 104.0000
61.0600 91.0000
61.0700 100.0000
61.0800 94.0000
61.0900 102.0000
61.1000 80.0000
61.1100 95.0000
61.1200 96.0000
61.1300 89.0000
61.1400 97.0000
61.1500 108.0000
61.1600 91.0000
61.1700 91.0000
61.1800 108.0000
61.1900 93.0000
61.2000 97.0000
61.2100 92.0000
61.2200 96.0000
61.2300 90.0000
61.2400 102.0000
61.2500 93.0000
61.2600 97.0000
61.2700 88.0000
61.2800 84.0000
61.2900 92.0000
61.3000 99.0000
61.3100 112.0000
61.3200 93.0000
61.3300 107.0000
61.3400 73.0000
61.3500 83.0000
61.3600 86.0000
61.3700 82.0000
61.3800 103.0000
61.3900 99.0000
61.4000 91.0000
61.4100 102.0000
61.4200 92.0000
61.4300 97.0000
61.4400 86.0000
61.4500 84.0000
61.4600 95.0000
61.4700 104.0000
61.4800 103.0000
61.4900 87.0000
61.5000 110.0000
61.5100 103.0000
61.5200 117.0000
61.5300 120.0000
61.5400 104.0000
61.5500 106.0000
61.5600 98.0000
61.5700 90.0000
61.5800 84.0000
61.5900 94.0000
61.6000 105.0000
61.6100 96.0000
61.6200 104.0000
61.6300 89.0000
61.6400 95.0000
61.6500 110.0000
61.6600 102.0000
61.6700 97.0000
61.6800 110.0000
61.6900 88.0000
61.7000 110.0000
61.7100 117.0000
61.7200 85.0000
61.7300 86.0000
61.7400 90.0000
61.7500 95.0000
61.7600 98.0000
61.7700 101.0000
61.7800 84.0000
61.7900 96.0000
61.8000 90.0000
61.8100 97.0000
61.8200 115.0000
61.8300 78.0000
61.8400 90.0000
61.8500 98.0000
61.8600 87.0000
61.8700 99.0000
61.8800 101.0000
61.8900 96.0000
61.9000 81.0000
61.9100 97.0000
61.9200 95.0000
61.9300 94.0000
61.9400 88.0000
61.9500 95.0000
61.9600 96.0000
61.9700 88.0000
61.9800 88.0000
61.9900 94.0000
62.0000 85.0000
62.0100 98.0000
62.0200 90.0000
62.0300 92.0000
62.0400 103.0000
62.0500 118.0000
62.0600 115.0000
62.0700 99.0000
62.0800 101.0000
62.0900 95.0000
62.1000 106.0000
62.1100 116.0000
62.1200 92.0000
62.1300 98.0000
62.1400 112.0000
62.1500 96.0000
62.1600 88.0000
62.1700 94.0000
62.1800 120.0000
62.1900 100.0000
62.2000 107.0000
62.2100 114.0000
62.2200 89.0000
62.2300 102.0000
62.2400 90.0000
62.2500 83.0000
62.2600 101.0000
62.2700 99.0000
62.2800 87.0000
62.2900 98.0000
62.3000 110.0000
62.3100 122.0000
62.3200 105.0000
62.3300 119.0000
62.3400 100.0000
62.3500 108.0000
62.3600 104.0000
62.3700 91.0000
62.3800 92.0000
62.3900 96.0000
62.4000 92.0000
62.4100 100.0000
62.4200 95.0000
62.4300 98.0000
62.4400 98.0000
62.4500 99.0000
62.4600 96.0000
62.4700 100.0000
62.4800 108.0000
62.4900 100.0000
62.5000 79.0000
62.5100 90.0000
62.5200 85.0000
62.5300 88.0000
62.5400 94.0000
62.5500 100.0000
62.5600 105.0000
62.5700 99.0000
62.5800 96.0000
62.5900 96.0000
62.6000 98.0000
62.6100 96.0000
62.6200 86.0000
62.6300 91.0000
62.6400 86.0000
62.6500 77.0000
62.6600 115.0000
62.6700 94.0000
62.6800 96.0000
62.6900 102.0000
62.7000 93.0000
62.7100 102.0000
62.7200 94.0000
62.7300 106.0000
62.7400 104.0000
62.7500 94.0000
62.7600 84.0000
62.7700 100.0000
62.7800 99.0000
62.7900 75.0000
62.8000 82.0000
62.8100 85.0000
62.8200 84.0000
62.8300 87.0000
62.8400 82.0000
62.8500 92.0000
62.8600 87.0000
62.8700 96.0000
62.8800 90.0000
62.8900 102.0000
62.9000 93.0000
62.9100 90.0000
62.9200 89.0000
62.9300 104.0000
62.9400 105.0000
62.9500 81.0000
62.9600 90.0000
62.9700 97.0000
62.9800 85.0000
62.9900 90.0000
63.0000 100.0000
63.0100 90.0000
63.0200 88.0000
63.0300 87.0000
63.0400 100.0000
63.0500 99.0000
63.0600 88.0000
63.0700 102.0000
63.0800 101.0000
63.0900 97.0000
63.1000 92.0000
63.1100 80.0000
63.1200 100.0000
63.1300 93.0000
63.1400 103.0000
63.1500 76.0000
63.1600 82.0000
63.1700 84.0000
63.1800 89.0000
63.1900 91.0000
63.2000 110.0000
63.2100 89.0000
63.2200 85.0000
63.2300 96.0000
63.2400 97.0000
63.2500 97.0000
63.2600 79.0000
63.2700 97.0000
63.2800 84.0000
63.2900 94.0000
63.3000 85.0000
63.3100 87.0000
63.3200 74.0000
63.3300 77.0000
63.3400 91.0000
63.3500 90.0000
63.3600 88.0000
63.3700 108.0000
63.3800 89.0000
63.3900 89.0000
63.4000 85.0000
63.4100 93.0000
63.4200 81.0000
63.4300 106.0000
63.4400 95.0000
63.4500 73.0000
63.4600 102.0000
63.4700 96.0000
63.4800 84.0000
63.4900 82.0000
63.5000 105.0000
63.5100 90.0000
63.5200 90.0000
63.5300 90.0000
63.5400 80.0000
63.5500 80.0000
63.5600 92.0000
63.5700 84.0000
63.5800 85.0000
63.5900 99.0000
63.6000 88.0000
63.6100 89.0000
63.6200 92.0000
63.6300 94.0000
63.6400 96.0000
63.6500 87.0000
63.6600 86.0000
63.6700 98.0000
63.6800 82.0000
63.6900 96.0000
63.7000 104.0000
63.7100 99.0000
63.7200 97.0000
63.7300 103.0000
63.7400 103.0000
63.7500 86.0000
63.7600 88.0000
63.7700 81.0000
63.7800 83.0000
63.7900 104.0000
63.8000 97.0000
63.8100 106.0000
63.8200 98.0000
63.8300 91.0000
63.8400 90.0000
63.8500 98.0000
63.8600 88.0000
63.8700 88.0000
63.8800 94.0000
63.8900 97.0000
63.9000 96.0000
63.9100 79.0000
63.9200 80.0000
63.9300 110.0000
63.9400 96.0000
63.9500 92.0000
63.9600 86.0000
63.9700 83.0000
63.9800 94.0000
63.9900 106.0000
64.0000 92.0000
64.0100 81.0000
64.0200 76.0000
64.0300 93.0000
64.0400 98.0000
64.0500 88.0000
64.0600 95.0000
64.0700 86.0000
64.0800 92.0000
64.0900 71.0000
64.1000 102.0000
64.1100 102.0000
64.1200 88.0000
64.1300 91.0000
64.1400 94.0000
64.1500 82.0000
64.1600 110.0000
64.1700 83.0000
64.1800 91.0000
64.1900 87.0000
64.2000 100.0000
64.2100 95.0000
64.2200 104.0000
64.2300 89.0000
64.2400 90.0000
64.2500 89.0000
64.2600 84.0000
64.2700 106.0000
64.2800 109.0000
64.2900 91.0000
64.3000 82.0000
64.3100 93.0000
64.3200 84.0000
64.3300 89.0000
64.3400 86.0000
64.3500 90.0000
64.3600 89.0000
64.3700 88.0000
64.3800 89.0000
64.3900 94.0000
64.4000 98.0000
64.4100 91.0000
64.4200 88.0000
64.4300 91.0000
64.4400 84.0000
64.4500 73.0000
64.4600 89.0000
64.4700 93.0000
64.4800 99.0000
64.4900 87.0000
64.5000 76.0000
64.5100 86.0000
64.5200 93.0000
64.5300 92.0000
64.5400 91.0000
64.5500 92.0000
64.5600 99.0000
64.5700 86.0000
64.5800 95.0000
64.5900 95.0000
64.6000 88.0000
64.6100 92.0000
64.6200 93.0000
64.6300 97.0000
64.6400 86.0000
64.6500 86.0000
64.6600 84.0000
64.6700 88.0000
64.6800 88.0000
64.6900 84.0000
64.7000 86.0000
64.7100 93.0000
64.7200 102.0000
64.7300 94.0000
64.7400 72.0000
64.7500 86.0000
64.7600 78.0000
64.7700 96.0000
64.7800 98.0000
64.7900 84.0000
64.8000 86.0000
64.8100 89.0000
64.8200 76.0000
64.8300 90.0000
64.8400 76.0000
64.8500 68.0000
64.8600 78.0000
64.8700 78.0000
64.8800 84.0000
64.8900 89.0000
64.9000 92.0000
64.9100 89.0000
64.9200 85.0000
64.9300 93.0000
64.9400 81.0000
64.9500 91.0000
64.9600 88.0000
64.9700 76.0000
64.9800 96.0000
64.9900 84.0000
65.0000 96.0000
65.0100 102.0000
65.0200 68.0000
65.0300 95.0000
65.0400 87.0000
65.0500 84.0000
65.0600 81.0000
65.0700 85.0000
65.0800 69.0000
65.0900 92.0000
65.1000 98.0000
65.1100 71.0000
65.1200 88.0000
65.1300 80.0000
65.1400 91.0000
65.1500 90.0000
65.1600 70.0000
65.1700 101.0000
65.1800 89.0000
65.1900 85.0000
65.2000 87.0000
65.2100 94.0000
65.2200 94.0000
65.2300 78.0000
65.2400 80.0000
65.2500 93.0000
65.2600 100.0000
65.2700 91.0000
65.2800 82.0000
65.2900 72.0000
65.3000 88.0000
65.3100 99.0000
65.3200 91.0000
65.3300 82.0000
65.3400 95.0000
65.3500 91.0000
65.3600 84.0000
65.3700 85.0000
65.3800 84.0000
65.3900 80.0000
65.4000 86.0000
65.4100 98.0000
65.4200 88.0000
65.4300 92.0000
65.4400 76.0000
65.4500 94.0000
65.4600 74.0000
65.4700 93.0000
65.4800 93.0000
65.4900 88.0000
65.5000 96.0000
65.5100 88.0000
65.5200 89.0000
65.5300 91.0000
65.5400 100.0000
65.5500 93.0000
65.5600 90.0000
65.5700 103.0000
65.5800 110.0000
65.5900 80.0000
65.6000 87.0000
65.6100 88.0000
65.6200 77.0000
65.6300 88.0000
65.6400 87.0000
65.6500 91.0000
65.6600 75.0000
65.6700 80.0000
65.6800 89.0000
65.6900 79.0000
65.7000 89.0000
65.7100 79.0000
65.7200 85.0000
65.7300 91.0000
65.7400 106.0000
65.7500 98.0000
65.7600 87.0000
65.7700 82.0000
65.7800 85.0000
65.7900 83.0000
65.8000 82.0000
65.8100 79.0000
65.8200 77.0000
65.8300 84.0000
65.8400 89.0000
65.8500 107.0000
65.8600 80.0000
65.8700 91.0000
65.8800 87.0000
65.8900 77.0000
65.9000 82.0000
65.9100 69.0000
65.9200 82.0000
65.9300 105.0000
65.9400 98.0000
65.9500 95.0000
65.9600 89.0000
65.9700 90.0000
65.9800 95.0000
65.9900 99.0000
66.0000 90.0000
66.0100 88.0000
66.0200 88.0000
66.0300 89.0000
66.0400 89.0000
66.0500 83.0000
66.0600 103.0000
66.0700 92.0000
66.0800 90.0000
66.0900 85.0000
66.1000 80.0000
66.1100 83.0000
66.1200 87.0000
66.1300 104.0000
66.1400 91.0000
66.1500 91.0000
66.1600 94.0000
66.1700 85.0000
66.1800 89.0000
66.1900 101.0000
66.2000 97.0000
66.2100 98.0000
66.2200 95.0000
66.2300 83.0000
66.2400 94.0000
66.2500 89.0000
66.2600 83.0000
66.2700 118.0000
66.2800 81.0000
66.2900 77.0000
66.3000 78.0000
66.3100 93.0000
66.3200 77.0000
66.3300 94.0000
66.3400 94.0000
66.3500 92.0000
66.3600 79.0000
66.3700 79.0000
66.3800 86.0000
66.3900 95.0000
66.4000 95.0000
66.4100 94.0000
66.4200 76.0000
66.4300 83.0000
66.4400 95.0000
66.4500 93.0000
66.4600 97.0000
66.4700 94.0000
66.4800 104.0000
66.4900 97.0000
66.5000 93.0000
66.5100 93.0000
66.5200 91.0000
66.5300 94.0000
66.5400 94.0000
66.5500 79.0000
66.5600 86.0000
66.5700 109.0000
66.5800 91.0000
66.5900 87.0000
66.6000 112.0000
66.6100 94.0000
66.6200 116.0000
66.6300 107.0000
66.6400 92.0000
66.6500 81.0000
66.6600 93.0000
66.6700 86.0000
66.6800 92.0000
66.6900 85.0000
66.7000 102.0000
66.7100 94.0000
66.7200 84.0000
66.7300 89.0000
66.7400 99.0000
66.7500 90.0000
66.7600 94.0000
66.7700 79.0000
66.7800 92.0000
66.7900 108.0000
66.8000 86.0000
66.8100 103.0000
66.8200 90.0000
66.8300 82.0000
66.8400 90.0000
66.8500 85.0000
66.8600 89.0000
66.8700 94.0000
66.8800 85.0000
66.8900 76.0000
66.9000 84.0000
66.9100 95.0000
66.9200 84.0000
66.9300 98.0000
66.9400 89.0000
66.9500 82.0000
66.9600 85.0000
66.9700 96.0000
66.9800 81.0000
66.9900 113.0000
67.0000 93.0000
67.0100 95.0000
67.0200 88.0000
67.0300 103.0000
67.0400 97.0000
67.0500 90.0000
67.0600 93.0000
67.0700 88.0000
67.0800 104.0000
67.0900 94.0000
67.1000 80.0000
67.1100 91.0000
67.1200 102.0000
67.1300 101.0000
67.1400 98.0000
67.1500 83.0000
67.1600 87.0000
67.1700 66.0000
67.1800 93.0000
67.1900 79.0000
67.2000 102.0000
67.2100 82.0000
67.2200 93.0000
67.2300 71.0000
67.2400 72.0000
67.2500 71.0000
67.2600 92.0000
67.2700 75.0000
67.2800 85.0000
67.2900 78.0000
67.3000 67.0000
67.3100 92.0000
67.3200 90.0000
67.3300 96.0000
67.3400 105.0000
67.3500 95.0000
67.3600 81.0000
67.3700 80.0000
67.3800 90.0000
67.3900 102.0000
67.4000 91.0000
67.4100 92.0000
67.4200 87.0000
67.4300 86.0000
67.4400 88.0000
67.4500 93.0000
67.4600 87.0000
67.4700 92.0000
67.4800 89.0000
67.4900 97.0000
67.5000 83.0000
67.5100 78.0000
67.5200 98.0000
67.5300 79.0000
67.5400 98.0000
67.5500 93.0000
67.5600 77.0000
67.5700 84.0000
67.5800 88.0000
67.5900 96.0000
67.6000 93.0000
67.6100 104.0000
67.6200 109.0000
67.6300 101.0000
67.6400 105.0000
67.6500 86.0000
67.6600 83.0000
67.6700 102.0000
67.6800 89.0000
67.6900 86.0000
67.7000 88.0000
67.7100 105.0000
67.7200 106.0000
67.7300 116.0000
67.7400 92.0000
67.7500 95.0000
67.7600 123.0000
67.7700 104.0000
67.7800 89.0000
67.7900 88.0000
67.8000 101.0000
67.8100 101.0000
67.8200 98.0000
67.8300 78.0000
67.8400 109.0000
67.8500 97.0000
67.8600 89.0000
67.8700 82.0000
67.8800 86.0000
67.8900 92.0000
67.9000 90.0000
67.9100 100.0000
67.9200 98.0000
67.9300 94.0000
67.9400 110.0000
67.9500 99.0000
67.9600 92.0000
67.9700 83.0000
67.9800 86.0000
67.9900 80.0000
68.0000 99.0000
68.0100 106.0000
68.0200 117.0000
68.0300 108.0000
68.0400 94.0000
68.0500 106.0000
68.0600 105.0000
68.0700 103.0000
68.0800 95.0000
68.0900 97.0000
68.1000 108.0000
68.1100 104.0000
68.1200 92.0000
68.1300 108.0000
68.1400 112.0000
68.1500 104.0000
68.1600 91.0000
68.1700 104.0000
68.1800 113.0000
68.1900 114.0000
68.2000 93.0000
68.2100 103.0000
68.2200 110.0000
68.2300 134.0000
68.2400 111.0000
68.2500 104.0000
68.2600 110.0000
68.2700 119.0000
68.2800 124.0000
68.2900 117.0000
68.3000 117.0000
68.3100 128.0000
68.3200 127.0000
68.3300 133.0000
68.3400 130.0000
68.3500 141.0000
68.3600 135.0000
68.3700 128.0000
68.3800 134.0000
68.3900 147.0000
68.4000 148.0000
68.4100 144.0000
68.4200 180.0000
68.4300 185.0000
68.4400 174.0000
68.4500 188.0000
68.4600 186.0000
68.4700 174.0000
68.4800 184.0000
68.4900 194.0000
68.5000 219.0000
68.5100 205.0000
68.5200 212.0000
68.5300 219.0000
68.5400 240.0000
68.5500 209.0000
68.5600 217.0000
68.5700 242.0000
68.5800 258.0000
68.5900 230.0000
68.6000 225.0000
68.6100 264.0000
68.6200 227.0000
68.6300 277.0000
68.6400 269.0000
68.6500 249.0000
68.6600 284.0000
68.6700 267.0000
68.6800 256.0000
68.6900 272.0000
68.7000 250.0000
68.7100 283.0000
68.7200 270.0000
68.7300 290.0000
68.7400 284.0000
68.7500 268.0000
68.7600 268.0000
68.7700 263.0000
68.7800 253.0000
68.7900 279.0000
68.8000 272.0000
68.8100 263.0000
68.8200 253.0000
68.8300 272.0000
68.8400 257.0000
68.8500 240.0000
68.8600 246.0000
68.8700 224.0000
68.8800 254.0000
68.8900 217.0000
68.9000 222.0000
68.9100 237.0000
68.9200 228.0000
68.9300 216.0000
68.9400 214.0000
68.9500 202.0000
68.9600 188.0000
68.9700 187.0000
68.9800 166.0000
68.9900 190.0000
69.0000 182.0000
69.0100 178.0000
69.0200 162.0000
69.0300 172.0000
69.0400 180.0000
69.0500 171.0000
69.0600 166.0000
69.0700 150.0000
69.0800 135.0000
69.0900 167.0000
69.1000 171.0000
69.1100 167.0000
69.1200 157.0000
69.1300 142.0000
69.1400 141.0000
69.1500 136.0000
69.1600 144.0000
69.1700 125.0000
69.1800 128.0000
69.1900 122.0000
69.2000 131.0000
69.2100 125.0000
69.2200 120.0000
69.2300 118.0000
69.2400 124.0000
69.2500 114.0000
69.2600 121.0000
69.2700 122.0000
69.2800 120.0000
69.2900 101.0000
69.3000 121.0000
69.3100 127.0000
69.3200 123.0000
69.3300 123.0000
69.3400 106.0000
69.3500 93.0000
69.3600 115.0000
69.3700 118.0000
69.3800 100.0000
69.3900 119.0000
69.4000 108.0000
69.4100 112.0000
69.4200 86.0000
69.4300 95.0000
69.4400 82.0000
69.4500 109.0000
69.4600 100.0000
69.4700 110.0000
69.4800 104.0000
69.4900 114.0000
69.5000 111.0000
69.5100 91.0000
69.5200 87.0000
69.5300 109.0000
69.5400 106.0000
69.5500 90.0000
69.5600 96.0000
69.5700 122.0000
69.5800 104.0000
69.5900 90.0000
69.6000 124.0000
69.6100 111.0000
69.6200 113.0000
69.6300 88.0000
69.6400 87.0000
69.6500 101.0000
69.6600 99.0000
69.6700 93.0000
69.6800 81.0000
69.6900 106.0000
69.7000 97.0000
69.7100 89.0000
69.7200 90.0000
69.7300 88.0000
69.7400 76.0000
69.7500 98.0000
69.7600 86.0000
69.7700 96.0000
69.7800 89.0000
69.7900 103.0000
69.8000 106.0000
69.8100 92.0000
69.8200 89.0000
69.8300 87.0000
69.8400 101.0000
69.8500 91.0000
69.8600 88.0000
69.8700 97.0000
69.8800 88.0000
69.8900 80.0000
69.9000 94.0000
69.9100 108.0000
69.9200 83.0000
69.9300 99.0000
69.9400 99.0000
69.9500 115.0000
69.9600 92.0000
69.9700 110.0000
69.9800 86.0000
69.9900 109.0000
70.0000 94.0000
70.0100 108.0000
70.0200 89.0000
70.0300 92.0000
70.0400 102.0000
70.0500 117.0000
70.0600 106.0000
70.0700 120.0000
70.0800 116.0000
70.0900 105.0000
70.1000 101.0000
70.1100 106.0000
70.1200 123.0000
70.1300 97.0000
70.1400 113.0000
70.1500 113.0000
70.1600 115.0000
70.1700 105.0000
70.1800 106.0000
70.1900 106.0000
70.2000 117.0000
70.2100 95.0000
70.2200 101.0000
70.2300 98.0000
70.2400 114.0000
70.2500 109.0000
70.2600 120.0000
70.2700 118.0000
70.2800 119.0000
70.2900 129.0000
70.3000 132.0000
70.3100 110.0000
70.3200 115.0000
70.3300 114.0000
70.3400 122.0000
70.3500 114.0000
70.3600 122.0000
70.3700 135.0000
70.3800 123.0000
70.3900 123.0000
70.4000 127.0000
70.4100 126.0000
70.4200 104.0000
70.4300 106.0000
70.4400 120.0000
70.4500 96.0000
70.4600 117.0000
70.4700 92.0000
70.4800 123.0000
70.4900 119.0000
70.5000 108.0000
70.5100 78.0000
70.5200 111.0000
70.5300 119.0000
70.5400 94.0000
70.5500 91.0000
70.5600 93.0000
70.5700 100.0000
70.5800 112.0000
70.5900 98.0000
70.6000 96.0000
70.6100 107.0000
70.6200 111.0000
70.6300 101.0000
70.6400 108.0000
70.6500 87.0000
70.6600 105.0000
70.6700 85.0000
70.6800 108.0000
70.6900 103.0000
70.7000 94.0000
70.7100 102.0000
70.7200 77.0000
70.7300 98.0000
70.7400 86.0000
70.7500 81.0000
70.7600 103.0000
70.7700 91.0000
70.7800 96.0000
70.7900 98.0000
70.8000 99.0000
70.8100 79.0000
70.8200 85.0000
70.8300 95.0000
70.8400 78.0000
70.8500 82.0000
70.8600 88.0000
70.8700 102.0000
70.8800 103.0000
70.8900 82.0000
70.9000 93.0000
70.9100 76.0000
70.9200 81.0000
70.9300 78.0000
70.9400 102.0000
70.9500 93.0000
70.9600 90.0000
70.9700 97.0000
70.9800 75.0000
70.9900 75.0000
71.0000 84.0000
71.0100 74.0000
71.0200 92.0000
71.0300 89.0000
71.0400 88.0000
71.0500 75.0000
71.0600 91.0000
71.0700 87.0000
71.0800 73.0000
71.0900 83.0000
71.1000 90.0000
71.1100 90.0000
71.1200 79.0000
71.1300 80.0000
71.1400 82.0000
71.1500 90.0000
71.1600 87.0000
71.1700 86.0000
71.1800 75.0000
71.1900 83.0000
71.2000 93.0000
71.2100 81.0000
71.2200 88.0000
71.2300 81.0000
71.2400 88.0000
71.2500 87.0000
71.2600 90.0000
71.2700 91.0000
71.2800 81.0000
71.2900 83.0000
71.3000 93.0000
71.3100 91.0000
71.3200 76.0000
71.3300 79.0000
71.3400 84.0000
71.3500 96.0000
71.3600 89.0000
71.3700 78.0000
71.3800 80.0000
71.3900 93.0000
71.4000 78.0000
71.4100 88.0000
71.4200 92.0000
71.4300 84.0000
71.4400 87.0000
71.4500 90.0000
71.4600 93.0000
71.4700 75.0000
71.4800 82.0000
71.4900 81.0000
71.5000 89.0000
71.5100 63.0000
71.5200 85.0000
71.5300 89.0000
71.5400 77.0000
71.5500 91.0000
71.5600 93.0000
71.5700 98.0000
71.5800 92.0000
71.5900 87.0000
71.6000 93.0000
71.6100 99.0000
71.6200 88.0000
71.6300 94.0000
71.6400 76.0000
71.6500 88.0000
71.6600 92.0000
71.6700 96.0000
71.6800 78.0000
71.6900 87.0000
71.7000 94.0000
71.7100 89.0000
71.7200 100.0000
71.7300 102.0000
71.7400 99.0000
71.7500 96.0000
71.7600 75.0000
71.7700 84.0000
71.7800 75.0000
71.7900 84.0000
71.8000 98.0000
71.8100 78.0000
71.8200 86.0000
71.8300 88.0000
71.8400 84.0000
71.8500 96.0000
71.8600 98.0000
71.8700 92.0000
71.8800 91.0000
71.8900 79.0000
71.9000 94.0000
71.9100 87.0000
71.9200 78.0000
71.9300 98.0000
71.9400 85.0000
71.9500 86.0000
71.9600 80.0000
71.9700 82.0000
71.9800 84.0000
71.9900 84.0000
72.0000 78.0000
72.0100 72.0000
72.0200 94.0000
72.0300 86.0000
72.0400 91.0000
72.0500 97.0000
72.0600 99.0000
72.0700 79.0000
72.0800 88.0000
72.0900 86.0000
72.1000 89.0000
72.1100 105.0000
72.1200 103.0000
72.1300 93.0000
72.1400 98.0000
72.1500 103.0000
72.1600 94.0000
72.1700 96.0000
72.1800 96.0000
72.1900 93.0000
72.2000 81.0000
72.2100 77.0000
72.2200 87.0000
72.2300 112.0000
72.2400 98.0000
72.2500 96.0000
72.2600 92.0000
72.2700 90.0000
72.2800 99.0000
72.2900 89.0000
72.3000 76.0000
72.3100 87.0000
72.3200 90.0000
72.3300 89.0000
72.3400 85.0000
72.3500 97.0000
72.3600 105.0000
72.3700 81.0000
72.3800 75.0000
72.3900 92.0000
72.4000 81.0000
72.4100 95.0000
72.4200 89.0000
72.4300 96.0000
72.4400 91.0000
72.4500 86.0000
72.4600 82.0000
72.4700 85.0000
72.4800 107.0000
72.4900 86.0000
72.5000 81.0000
72.5100 74.0000
72.5200 95.0000
72.5300 90.0000
72.5400 88.0000
72.5500 90.0000
72.5600 83.0000
72.5700 82.0000
72.5800 79.0000
72.5900 83.0000
72.6000 79.0000
72.6100 81.0000
72.6200 91.0000
72.6300 94.0000
72.6400 78.0000
72.6500 86.0000
72.6600 94.0000
72.6700 81.0000
72.6800 85.0000
72.6900 74.0000
72.7000 72.0000
72.7100 76.0000
72.7200 76.0000
72.7300 108.0000
72.7400 89.0000
72.7500 92.0000
72.7600 105.0000
72.7700 114.0000
72.7800 91.0000
72.7900 94.0000
72.8000 80.0000
72.8100 77.0000
72.8200 87.0000
72.8300 86.0000
72.8400 77.0000
72.8500 74.0000
72.8600 86.0000
72.8700 79.0000
72.8800 88.0000
72.8900 85.0000
72.9000 88.0000
72.9100 94.0000
72.9200 71.0000
72.9300 85.0000
72.9400 88.0000
72.9500 94.0000
72.9600 79.0000
72.9700 81.0000
72.9800 92.0000
72.9900 86.0000
73.0000 96.0000
73.0100 81.0000
73.0200 94.0000
73.0300 80.0000
73.0400 92.0000
73.0500 84.0000
73.0600 85.0000
73.0700 84.0000
73.0800 106.0000
73.0900 89.0000
73.1000 97.0000
73.1100 92.0000
73.1200 85.0000
73.1300 77.0000
73.1400 81.0000
73.1500 79.0000
73.1600 88.0000
73.1700 86.0000
73.1800 92.0000
73.1900 105.0000
73.2000 93.0000
73.2100 82.0000
73.2200 86.0000
73.2300 74.0000
73.2400 95.0000
73.2500 80.0000
73.2600 98.0000
73.2700 80.0000
73.2800 80.0000
73.2900 94.0000
73.3000 82.0000
73.3100 90.0000
73.3200 90.0000
73.3300 83.0000
73.3400 75.0000
73.3500 94.0000
73.3600 88.0000
73.3700 93.0000
73.3800 98.0000
73.3900 91.0000
73.4000 81.0000
73.4100 85.0000
73.4200 92.0000
73.4300 75.0000
73.4400 78.0000
73.4500 84.0000
73.4600 93.0000
73.4700 79.0000
73.4800 86.0000
73.4900 98.0000
73.5000 96.0000
73.5100 95.0000
73.5200 90.0000
73.5300 88.0000
73.5400 99.0000
73.5500 86.0000
73.5600 80.0000
73.5700 83.0000
73.5800 82.0000
73.5900 97.0000
73.6000 93.0000
73.6100 87.0000
73.6200 95.0000
73.6300 86.0000
73.6400 103.0000
73.6500 84.0000
73.6600 93.0000
73.6700 90.0000
73.6800 103.0000
73.6900 91.0000
73.7000 88.0000
73.7100 114.0000
73.7200 95.0000
73.7300 97.0000
73.7400 97.0000
73.7500 95.0000
73.7600 91.0000
73.7700 80.0000
73.7800 95.0000
73.7900 82.0000
73.8000 94.0000
73.8100 99.0000
73.8200 109.0000
73.8300 102.0000
73.8400 78.0000
73.8500 110.0000
73.8600 97.0000
73.8700 88.0000
73.8800 97.0000
73.8900 88.0000
73.9000 94.0000
73.9100 103.0000
73.9200 85.0000
73.9300 92.0000
73.9400 88.0000
73.9500 103.0000
73.9600 85.0000
73.9700 90.0000
73.9800 97.0000
73.9900 106.0000
74.0000 94.0000
74.0100 82.0000
74.0200 101.0000
74.0300 103.0000
74.0400 86.0000
74.0500 91.0000
74.0600 77.0000
74.0700 94.0000
74.0800 104.0000
74.0900 86.0000
74.1000 95.0000
74.1100 98.0000
74.1200 88.0000
74.1300 89.0000
74.1400 94.0000
74.1500 73.0000
74.1600 91.0000
74.1700 106.0000
74.1800 83.0000
74.1900 84.0000
74.2000 100.0000
74.2100 99.0000
74.2200 96.0000
74.2300 99.0000
74.2400 88.0000
74.2500 95.0000
74.2600 97.0000
74.2700 79.0000
74.2800 87.0000
74.2900 104.0000
74.3000 92.0000
74.3100 88.0000
74.3200 81.0000
74.3300 80.0000
74.3400 85.0000
74.3500 82.0000
74.3600 82.0000
74.3700 83.0000
74.3800 87.0000
74.3900 89.0000
74.4000 95.0000
74.4100 107.0000
74.4200 93.0000
74.4300 81.0000
74.4400 88.0000
74.4500 99.0000
74.4600 91.0000
74.4700 91.0000
74.4800 96.0000
74.4900 83.0000
74.5000 97.0000
74.5100 96.0000
74.5200 104.0000
74.5300 91.0000
74.5400 84.0000
74.5500 87.0000
74.5600 78.0000
74.5700 90.0000
74.5800 89.0000
74.5900 91.0000
74.6000 90.0000
74.6100 97.0000
74.6200 100.0000
74.6300 98.0000
74.6400 93.0000
74.6500 84.0000
74.6600 91.0000
74.6700 104.0000
74.6800 85.0000
74.6900 91.0000
74.7000 88.0000
74.7100 99.0000
74.7200 100.0000
74.7300 78.0000
74.7400 92.0000
74.7500 99.0000
74.7600 105.0000
74.7700 93.0000
74.7800 110.0000
74.7900 100.0000
74.8000 86.0000
74.8100 91.0000
74.8200 95.0000
74.8300 74.0000
74.8400 78.0000
74.8500 87.0000
74.8600 101.0000
74.8700 95.0000
74.8800 98.0000
74.8900 83.0000
74.9000 92.0000
74.9100 86.0000
74.9200 90.0000
74.9300 90.0000
74.9400 90.0000
74.9500 86.0000
74.9600 108.0000
74.9700 83.0000
74.9800 93.0000
74.9900 102.0000
75.0000 94.0000
75.0100 77.0000
75.0200 94.0000
75.0300 78.0000
75.0400 78.0000
75.0500 86.0000
75.0600 85.0000
75.0700 91.0000
75.0800 84.0000
75.0900 79.0000
75.1000 89.0000
75.1100 93.0000
75.1200 100.0000
75.1300 93.0000
75.1400 90.0000
75.1500 83.0000
75.1600 103.0000
75.1700 73.0000
75.1800 94.0000
75.1900 80.0000
75.2000 92.0000
75.2100 88.0000
75.2200 92.0000
75.2300 95.0000
75.2400 83.0000
75.2500 86.0000
75.2600 91.0000
75.2700 102.0000
75.2800 87.0000
75.2900 71.0000
75.3000 92.0000
75.3100 76.0000
75.3200 86.0000
75.3300 100.0000
75.3400 97.0000
75.3500 85.0000
75.3600 92.0000
75.3700 87.0000
75.3800 84.0000
75.3900 95.0000
75.4000 85.0000
75.4100 94.0000
75.4200 93.0000
75.4300 84.0000
75.4400 96.0000
75.4500 100.0000
75.4600 76.0000
75.4700 109.0000
75.4800 84.0000
75.4900 85.0000
75.5000 95.0000
75.5100 91.0000
75.5200 90.0000
75.5300 103.0000
75.5400 99.0000
75.5500 92.0000
75.5600 80.0000
75.5700 89.0000
75.5800 104.0000
75.5900 103.0000
75.6000 91.0000
75.6100 99.0000
75.6200 104.0000
75.6300 102.0000
75.6400 87.0000
75.6500 88.0000
75.6600 95.0000
75.6700 93.0000
75.6800 115.0000
75.6900 100.0000
75.7000 96.0000
75.7100 99.0000
75.7200 108.0000
75.7300 90.0000
75.7400 94.0000
75.7500 105.0000
75.7600 107.0000
75.7700 88.0000
75.7800 94.0000
75.7900 84.0000
75.8000 91.0000
75.8100 88.0000
75.8200 101.0000
75.8300 117.0000
75.8400 104.0000
75.8500 103.0000
75.8600 100.0000
75.8700 95.0000
75.8800 99.0000
75.8900 98.0000
75.9000 84.0000
75.9100 86.0000
75.9200 86.0000
75.9300 79.0000
75.9400 83.0000
75.9500 93.0000
75.9600 102.0000
75.9700 103.0000
75.9800 110.0000
75.9900 108.0000
76.0000 100.0000
76.0100 103.0000
76.0200 124.0000
76.0300 109.0000
76.0400 98.0000
76.0500 111.0000
76.0600 108.0000
76.0700 104.0000
76.0800 96.0000
76.0900 103.0000
76.1000 106.0000
76.1100 109.0000
76.1200 102.0000
76.1300 101.0000
76.1400 107.0000
76.1500 98.0000
76.1600 131.0000
76.1700 127.0000
76.1800 112.0000
76.1900 134.0000
76.2000 119.0000
76.2100 114.0000
76.2200 123.0000
76.2300 110.0000
76.2400 102.0000
76.2500 110.0000
76.2600 122.0000
76.2700 123.0000
76.2800 110.0000
76.2900 145.0000
76.3000 123.0000
76.3100 116.0000
76.3200 132.0000
76.3300 115.0000
76.3400 126.0000
76.3500 129.0000
76.3600 127.0000
76.3700 143.0000
76.3800 146.0000
76.3900 134.0000
76.4000 132.0000
76.4100 113.0000
76.4200 157.0000
76.4300 144.0000
76.4400 137.0000
76.4500 157.0000
76.4600 135.0000
76.4700 144.0000
76.4800 142.0000
76.4900 155.0000
76.5000 139.0000
76.5100 145.0000
76.5200 134.0000
76.5300 145.0000
76.5400 153.0000
76.5500 157.0000
76.5600 170.0000
76.5700 143.0000
76.5800 162.0000
76.5900 159.0000
76.6000 168.0000
76.6100 173.0000
76.6200 169.0000
76.6300 172.0000
76.6400 172.0000
76.6500 175.0000
76.6600 163.0000
76.6700 170.0000
76.6800 183.0000
76.6900 168.0000
76.7000 179.0000
76.7100 202.0000
76.7200 193.0000
76.7300 205.0000
76.7400 165.0000
76.7500 207.0000
76.7600 202.0000
76.7700 217.0000
76.7800 219.0000
76.7900 219.0000
76.8000 203.0000
76.8100 220.0000
76.8200 199.0000
76.8300 226.0000
76.8400 231.0000
76.8500 232.0000
76.8600 228.0000
76.8700 227.0000
76.8800 221.0000
76.8900 222.0000
76.9000 246.0000
76.9100 236.0000
76.9200 245.0000
76.9300 241.0000
76.9400 230.0000
76.9500 270.0000
76.9600 241.0000
76.9700 239.0000
76.9800 248.0000
76.9900 237.0000
77.0000 251.0000
77.0100 242.0000
77.0200 262.0000
77.0300 245.0000
77.0400 281.0000
77.0500 230.0000
77.0600 241.0000
77.0700 257.0000
77.0800 271.0000
77.0900 262.0000
77.1000 248.0000
77.1100 258.0000
77.1200 243.0000
77.1300 260.0000
77.1400 233.0000
77.1500 252.0000
77.1600 274.0000
77.1700 263.0000
77.1800 254.0000
77.1900 248.0000
77.2000 273.0000
77.2100 271.0000
77.2200 245.0000
77.2300 222.0000
77.2400 225.0000
77.2500 239.0000
77.2600 240.0000
77.2700 251.0000
77.2800 218.0000
77.2900 253.0000
77.3000 204.0000
77.3100 253.0000
77.3200 216.0000
77.3300 214.0000
77.3400 190.0000
77.3500 221.0000
77.3600 219.0000
77.3700 238.0000
77.3800 190.0000
77.3900 211.0000
77.4000 181.0000
77.4100 216.0000
77.4200 195.0000
77.4300 199.0000
77.4400 177.0000
77.4500 180.0000
77.4600 178.0000
77.4700 170.0000
77.4800 187.0000
77.4900 194.0000
77.5000 183.0000
77.5100 208.0000
77.5200 176.0000
77.5300 181.0000
77.5400 192.0000
77.5500 165.0000
77.5600 152.0000
77.5700 163.0000
77.5800 152.0000
77.5900 133.0000
77.6000 141.0000
77.6100 151.0000
77.6200 132.0000
77.6300 162.0000
77.6400 156.0000
77.6500 157.0000
77.6600 155.0000
77.6700 132.0000
77.6800 153.0000
77.6900 141.0000
77.7000 129.0000
77.7100 145.0000
77.7200 137.0000
77.7300 137.0000
77.7400 133.0000
77.7500 135.0000
77.7600 165.0000
77.7700 128.0000
77.7800 125.0000
77.7900 138.0000
77.8000 135.0000
77.8100 136.0000
77.8200 117.0000
77.8300 132.0000
77.8400 133.0000
77.8500 138.0000
77.8600 122.0000
77.8700 128.0000
77.8800 120.0000
77.8900 125.0000
77.9000 118.0000
77.9100 129.0000
77.9200 107.0000
77.9300 131.0000
77.9400 102.0000
77.9500 136.0000
77.9600 127.0000
77.9700 113.0000
77.9800 98.0000
77.9900 112.0000
78.0000 107.0000
78.0100 110.0000
78.0200 116.0000
78.0300 110.0000
78.0400 99.0000
78.0500 116.0000
78.0600 113.0000
78.0700 127.0000
78.0800 112.0000
78.0900 112.0000
78.1000 118.0000
78.1100 98.0000
78.1200 84.0000
78.1300 110.0000
78.1400 115.0000
78.1500 108.0000
78.1600 103.0000
78.1700 102.0000
78.1800 96.0000
78.1900 87.0000
78.2000 107.0000
78.2100 99.0000
78.2200 118.0000
78.2300 133.0000
78.2400 91.0000
78.2500 100.0000
78.2600 114.0000
78.2700 101.0000
78.2800 114.0000
78.2900 109.0000
78.3000 101.0000
78.3100 96.0000
78.3200 109.0000
78.3300 95.0000
78.3400 101.0000
78.3500 106.0000
78.3600 108.0000
78.3700 108.0000
78.3800 103.0000
78.3900 97.0000
78.4000 112.0000
78.4100 105.0000
78.4200 95.0000
78.4300 98.0000
78.4400 94.0000
78.4500 108.0000
78.4600 104.0000
78.4700 104.0000
78.4800 113.0000
78.4900 90.0000
78.5000 103.0000
78.5100 96.0000
78.5200 98.0000
78.5300 91.0000
78.5400 92.0000
78.5500 114.0000
78.5600 107.0000
78.5700 98.0000
78.5800 96.0000
78.5900 93.0000
78.6000 86.0000
78.6100 100.0000
78.6200 98.0000
78.6300 86.0000
78.6400 106.0000
78.6500 89.0000
78.6600 94.0000
78.6700 105.0000
78.6800 95.0000
78.6900 105.0000
78.7000 124.0000
78.7100 105.0000
78.7200 89.0000
78.7300 100.0000
78.7400 97.0000
78.7500 103.0000
78.7600 103.0000
78.7700 96.0000
78.7800 88.0000
78.7900 88.0000
78.8000 110.0000
78.8100 94.0000
78.8200 114.0000
78.8300 100.0000
78.8400 112.0000
78.8500 112.0000
78.8600 89.0000
78.8700 102.0000
78.8800 102.0000
78.8900 98.0000
78.9000 99.0000
78.9100 95.0000
78.9200 103.0000
78.9300 95.0000
78.9400 104.0000
78.9500 98.0000
78.9600 97.0000
78.9700 93.0000
78.9800 114.0000
78.9900 86.0000
79.0000 96.0000
79.0100 102.0000
79.0200 98.0000
79.0300 98.0000
79.0400 86.0000
79.0500 96.0000
79.0600 105.0000
79.0700 108.0000
79.0800 98.0000
79.0900 103.0000
79.1000 100.0000
79.1100 103.0000
79.1200 105.0000
79.1300 93.0000
79.1400 83.0000
79.1500 97.0000
79.1600 95.0000
79.1700 100.0000
79.1800 91.0000
79.1900 96.0000
79.2000 111.0000
79.2100 95.0000
79.2200 98.0000
79.2300 87.0000
79.2400 97.0000
79.2500 94.0000
79.2600 94.0000
79.2700 100.0000
79.2800 99.0000
79.2900 107.0000
79.3000 91.0000
79.3100 90.0000
79.3200 96.0000
79.3300 99.0000
79.3400 89.0000
79.3500 98.0000
79.3600 91.0000
79.3700 101.0000
79.3800 96.0000
79.3900 92.0000
79.4000 93.0000
79.4100 87.0000
79.4200 76.0000
79.4300 97.0000
79.4400 102.0000
79.4500 112.0000
79.4600 84.0000
79.4700 99.0000
79.4800 106.0000
79.4900 98.0000
79.5000 95.0000
79.5100 87.0000
79.5200 90.0000
79.5300 90.0000
79.5400 85.0000
79.5500 102.0000
79.5600 111.0000
79.5700 90.0000
79.5800 92.0000
79.5900 99.0000
79.6000 97.0000
79.6100 91.0000
79.6200 74.0000
79.6300 93.0000
79.6400 100.0000
79.6500 80.0000
79.6600 107.0000
79.6700 82.0000
79.6800 94.0000
79.6900 105.0000
79.7000 95.0000
79.7100 97.0000
79.7200 93.0000
79.7300 94.0000
79.7400 94.0000
79.7500 88.0000
79.7600 87.0000
79.7700 85.0000
79.7800 83.0000
79.7900 79.0000
79.8000 96.0000
79.8100 102.0000
79.8200 101.0000
79.8300 82.0000
79.8400 90.0000
79.8500 81.0000
79.8600 95.0000
79.8700 90.0000
79.8800 100.0000
79.8900 95.0000
79.9000 79.0000
79.9100 102.0000
79.9200 96.0000
79.9300 89.0000
79.9400 110.0000
79.9500 99.0000
79.9600 98.0000
79.9700 94.0000
79.9800 92.0000
79.9900 81.0000
80.0000 92.0000
80.0100 104.0000
80.0200 95.0000
80.0300 82.0000
80.0400 95.0000
80.0500 89.0000
80.0600 97.0000
80.0700 82.0000
80.0800 96.0000
80.0900 91.0000
80.1000 83.0000
80.1100 84.0000
80.1200 93.0000
80.1300 81.0000
80.1400 105.0000
80.1500 81.0000
80.1600 90.0000
80.1700 108.0000
80.1800 90.0000
80.1900 93.0000
80.2000 94.0000
80.2100 107.0000
80.2200 93.0000
80.2300 109.0000
80.2400 110.0000
80.2500 91.0000
80.2600 101.0000
80.2700 100.0000
80.2800 79.0000
80.2900 93.0000
80.3000 102.0000
80.3100 95.0000
80.3200 94.0000
80.3300 115.0000
80.3400 97.0000
80.3500 84.0000
80.3600 90.0000
80.3700 87.0000
80.3800 93.0000
80.3900 111.0000
80.4000 103.0000
80.4100 91.0000
80.4200 105.0000
80.4300 104.0000
80.4400 96.0000
80.4500 89.0000
80.4600 96.0000
80.4700 88.0000
80.4800 102.0000
80.4900 86.0000
80.5000 91.0000
80.5100 106.0000
80.5200 97.0000
80.5300 95.0000
80.5400 86.0000
80.5500 103.0000
80.5600 97.0000
80.5700 81.0000
80.5800 83.0000
80.5900 97.0000
80.6000 92.0000
80.6100 96.0000
80.6200 103.0000
80.6300 98.0000
80.6400 107.0000
80.6500 102.0000
80.6600 87.0000
80.6700 99.0000
80.6800 103.0000
80.6900 98.0000
80.7000 96.0000
80.7100 114.0000
80.7200 115.0000
80.7300 112.0000
80.7400 91.0000
80.7500 100.0000
80.7600 110.0000
80.7700 89.0000
80.7800 104.0000
80.7900 103.0000
80.8000 94.0000
80.8100 93.0000
80.8200 92.0000
80.8300 121.0000
80.8400 92.0000
80.8500 95.0000
80.8600 108.0000
80.8700 114.0000
80.8800 105.0000
80.8900 112.0000
80.9000 95.0000
80.9100 83.0000
80.9200 95.0000
80.9300 112.0000
80.9400 94.0000
80.9500 104.0000
80.9600 101.0000
80.9700 89.0000
80.9800 132.0000
80.9900 110.0000
81.0000 98.0000
81.0100 86.0000
81.0200 106.0000
81.0300 108.0000
81.0400 115.0000
81.0500 101.0000
81.0600 108.0000
81.0700 96.0000
81.0800 104.0000
81.0900 106.0000
81.1000 105.0000
81.1100 101.0000
81.1200 94.0000
81.1300 99.0000
81.1400 102.0000
81.1500 110.0000
81.1600 87.0000
81.1700 106.0000
81.1800 112.0000
81.1900 94.0000
81.2000 94.0000
81.2100 113.0000
81.2200 96.0000
81.2300 100.0000
81.2400 103.0000
81.2500 97.0000
81.2600 104.0000
81.2700 114.0000
81.2800 102.0000
81.2900 101.0000
81.3000 113.0000
81.3100 90.0000
81.3200 100.0000
81.3300 105.0000
81.3400 95.0000
81.3500 115.0000
81.3600 116.0000
81.3700 101.0000
81.3800 120.0000
81.3900 118.0000
81.4000 107.0000
81.4100 109.0000
81.4200 85.0000
81.4300 108.0000
81.4400 103.0000
81.4500 110.0000
81.4600 110.0000
81.4700 102.0000
81.4800 106.0000
81.4900 108.0000
81.5000 119.0000
81.5100 111.0000
81.5200 106.0000
81.5300 107.0000
81.5400 111.0000
81.5500 102.0000
81.5600 85.0000
81.5700 118.0000
81.5800 120.0000
81.5900 115.0000
81.6000 108.0000
81.6100 116.0000
81.6200 110.0000
81.6300 104.0000
81.6400 101.0000
81.6500 97.0000
81.6600 101.0000
81.6700 84.0000
81.6800 92.0000
81.6900 97.0000
81.7000 100.0000
81.7100 114.0000
81.7200 109.0000
81.7300 116.0000
81.7400 111.0000
81.7500 104.0000
81.7600 104.0000
81.7700 108.0000
81.7800 113.0000
81.7900 100.0000
81.8000 107.0000
81.8100 110.0000
81.8200 99.0000
81.8300 103.0000
81.8400 85.0000
81.8500 89.0000
81.8600 114.0000
81.8700 106.0000
81.8800 115.0000
81.8900 111.0000
81.9000 103.0000
81.9100 115.0000
81.9200 114.0000
81.9300 109.0000
81.9400 104.0000
81.9500 112.0000
81.9600 121.0000
81.9700 143.0000
81.9800 93.0000
81.9900 98.0000
82.0000 123.0000
82.0100 137.0000
82.0200 117.0000
82.0300 116.0000
82.0400 113.0000
82.0500 117.0000
82.0600 122.0000
82.0700 114.0000
82.0800 111.0000
82.0900 92.0000
82.1000 89.0000
82.1100 88.0000
82.1200 98.0000
82.1300 118.0000
82.1400 99.0000
82.1500 80.0000
82.1600 116.0000
82.1700 115.0000
82.1800 133.0000
82.1900 101.0000
82.2000 95.0000
82.2100 102.0000
82.2200 106.0000
82.2300 115.0000
82.2400 115.0000
82.2500 133.0000
82.2600 104.0000
82.2700 118.0000
82.2800 99.0000
82.2900 98.0000
82.3000 117.0000
82.3100 111.0000
82.3200 97.0000
82.3300 106.0000
82.3400 116.0000
82.3500 123.0000
82.3600 113.0000
82.3700 110.0000
82.3800 110.0000
82.3900 123.0000
82.4000 96.0000
82.4100 103.0000
82.4200 112.0000
82.4300 135.0000
82.4400 129.0000
82.4500 98.0000
82.4600 111.0000
82.4700 115.0000
82.4800 111.0000
82.4900 102.0000
82.5000 127.0000
82.5100 131.0000
82.5200 111.0000
82.5300 99.0000
82.5400 102.0000
82.5500 104.0000
82.5600 101.0000
82.5700 115.0000
82.5800 110.0000
82.5900 121.0000
82.6000 120.0000
82.6100 120.0000
82.6200 123.0000
82.6300 126.0000
82.6400 106.0000
82.6500 115.0000
82.6600 94.0000
82.6700 110.0000
82.6800 119.0000
82.6900 89.0000
82.7000 104.0000
82.7100 131.0000
82.7200 131.0000
82.7300 111.0000
82.7400 115.0000
82.7500 111.0000
82.7600 109.0000
82.7700 110.0000
82.7800 126.0000
82.7900 115.0000
82.8000 101.0000
82.8100 114.0000
82.8200 110.0000
82.8300 111.0000
82.8400 127.0000
82.8500 124.0000
82.8600 105.0000
82.8700 101.0000
82.8800 112.0000
82.8900 117.0000
82.9000 127.0000
82.9100 115.0000
82.9200 117.0000
82.9300 126.0000
82.9400 100.0000
82.9500 134.0000
82.9600 125.0000
82.9700 127.0000
82.9800 135.0000
82.9900 120.0000
83.0000 97.0000
83.0100 135.0000
83.0200 127.0000
83.0300 117.0000
83.0400 136.0000
83.0500 129.0000
83.0600 118.0000
83.0700 136.0000
83.0800 116.0000
83.0900 135.0000
83.1000 123.0000
83.1100 124.0000
83.1200 113.0000
83.1300 128.0000
83.1400 113.0000
83.1500 130.0000
83.1600 138.0000
83.1700 128.0000
83.1800 142.0000
83.1900 133.0000
83.2000 132.0000
83.2100 129.0000
83.2200 117.0000
83.2300 129.0000
83.2400 139.0000
83.2500 130.0000
83.2600 132.0000
83.2700 121.0000
83.2800 126.0000
83.2900 130.0000
83.3000 121.0000
83.3100 114.0000
83.3200 121.0000
83.3300 147.0000
83.3400 127.0000
83.3500 120.0000
83.3600 129.0000
83.3700 151.0000
83.3800 135.0000
83.3900 129.0000
83.4000 125.0000
83.4100 130.0000
83.4200 127.0000
83.4300 129.0000
83.4400 134.0000
83.4500 125.0000
83.4600 144.0000
83.4700 132.0000
83.4800 140.0000
83.4900 126.0000
83.5000 138.0000
83.5100 155.0000
83.5200 136.0000
83.5300 125.0000
83.5400 124.0000
83.5500 136.0000
83.5600 117.0000
83.5700 132.0000
83.5800 133.0000
83.5900 118.0000
83.6000 125.0000
83.6100 130.0000
83.6200 139.0000
83.6300 134.0000
83.6400 130.0000
83.6500 138.0000
83.6600 116.0000
83.6700 147.0000
83.6800 133.0000
83.6900 112.0000
83.7000 124.0000
83.7100 134.0000
83.7200 150.0000
83.7300 132.0000
83.7400 134.0000
83.7500 124.0000
83.7600 145.0000
83.7700 130.0000
83.7800 123.0000
83.7900 114.0000
83.8000 115.0000
83.8100 148.0000
83.8200 142.0000
83.8300 127.0000
83.8400 124.0000
83.8500 145.0000
83.8600 130.0000
83.8700 129.0000
83.8800 135.0000
83.8900 133.0000
83.9000 128.0000
83.9100 132.0000
83.9200 136.0000
83.9300 133.0000
83.9400 141.0000
83.9500 124.0000
83.9600 160.0000
83.9700 135.0000
83.9800 111.0000
83.9900 126.0000
84.0000 134.0000
84.0100 140.0000
84.0200 145.0000
84.0300 143.0000
84.0400 139.0000
84.0500 149.0000
84.0600 130.0000
84.0700 126.0000
84.0800 135.0000
84.0900 126.0000
84.1000 131.0000
84.1100 135.0000
84.1200 121.0000
84.1300 127.0000
84.1400 137.0000
84.1500 139.0000
84.1600 142.0000
84.1700 121.0000
84.1800 116.0000
84.1900 133.0000
84.2000 130.0000
84.2100 135.0000
84.2200 128.0000
84.2300 135.0000
84.2400 134.0000
84.2500 134.0000
84.2600 107.0000
84.2700 136.0000
84.2800 119.0000
84.2900 128.0000
84.3000 120.0000
84.3100 138.0000
84.3200 132.0000
84.3300 123.0000
84.3400 158.0000
84.3500 142.0000
84.3600 133.0000
84.3700 119.0000
84.3800 135.0000
84.3900 155.0000
84.4000 151.0000
84.4100 128.0000
84.4200 133.0000
84.4300 139.0000
84.4400 155.0000
84.4500 138.0000
84.4600 149.0000
84.4700 124.0000
84.4800 131.0000
84.4900 137.0000
84.5000 126.0000
84.5100 142.0000
84.5200 142.0000
84.5300 143.0000
84.5400 151.0000
84.5500 135.0000
84.5600 127.0000
84.5700 137.0000
84.5800 149.0000
84.5900 126.0000
84.6000 136.0000
84.6100 113.0000
84.6200 122.0000
84.6300 123.0000
84.6400 141.0000
84.6500 140.0000
84.6600 141.0000
84.6700 141.0000
84.6800 154.0000
84.6900 129.0000
84.7000 130.0000
84.7100 117.0000
84.7200 118.0000
84.7300 142.0000
84.7400 130.0000
84.7500 122.0000
84.7600 149.0000
84.7700 136.0000
84.7800 129.0000
84.7900 135.0000
84.8000 131.0000
84.8100 114.0000
84.8200 142.0000
84.8300 157.0000
84.8400 139.0000
84.8500 145.0000
84.8600 127.0000
84.8700 124.0000
84.8800 144.0000
84.8900 138.0000
84.9000 122.0000
84.9100 139.0000
84.9200 139.0000
84.9300 140.0000
84.9400 157.0000
84.9500 156.0000
84.9600 129.0000
84.9700 142.0000
84.9800 149.0000
84.9900 141.0000
85.0000 150.0000
85.0100 133.0000
85.0200 139.0000
85.0300 144.0000
85.0400 134.0000
85.0500 157.0000
85.0600 132.0000
85.0700 153.0000
85.0800 163.0000
85.0900 144.0000
85.1000 154.0000
85.1100 155.0000
85.1200 164.0000
85.1300 142.0000
85.1400 143.0000
85.1500 136.0000
85.1600 140.0000
85.1700 160.0000
85.1800 145.0000
85.1900 143.0000
85.2000 146.0000
85.2100 148.0000
85.2200 151.0000
85.2300 131.0000
85.2400 145.0000
85.2500 152.0000
85.2600 141.0000
85.2700 150.0000
85.2800 156.0000
85.2900 151.0000
85.3000 164.0000
85.3100 146.0000
85.3200 131.0000
85.3300 136.0000
85.3400 147.0000
85.3500 146.0000
85.3600 162.0000
85.3700 137.0000
85.3800 152.0000
85.3900 135.0000
85.4000 148.0000
85.4100 157.0000
85.4200 148.0000
85.4300 127.0000
85.4400 158.0000
85.4500 150.0000
85.4600 146.0000
85.4700 154.0000
85.4800 161.0000
85.4900 156.0000
85.5000 150.0000
85.5100 140.0000
85.5200 151.0000
85.5300 145.0000
85.5400 148.0000
85.5500 144.0000
85.5600 156.0000
85.5700 158.0000
85.5800 147.0000
85.5900 147.0000
85.6000 154.0000
85.6100 161.0000
85.6200 158.0000
85.6300 183.0000
85.6400 167.0000
85.6500 171.0000
85.6600 166.0000
85.6700 159.0000
85.6800 164.0000
85.6900 173.0000
85.7000 174.0000
85.7100 149.0000
85.7200 180.0000
85.7300 157.0000
85.7400 170.0000
85.7500 172.0000
85.7600 157.0000
85.7700 169.0000
85.7800 160.0000
85.7900 181.0000
85.8000 157.0000
85.8100 158.0000
85.8200 185.0000
85.8300 164.0000
85.8400 170.0000
85.8500 147.0000
85.8600 156.0000
85.8700 150.0000
85.8800 157.0000
85.8900 162.0000
85.9000 153.0000
85.9100 168.0000
85.9200 147.0000
85.9300 157.0000
85.9400 160.0000
85.9500 149.0000
85.9600 149.0000
85.9700 162.0000
85.9800 159.0000
85.9900 170.0000
86.0000 169.0000
86.0100 196.0000
86.0200 173.0000
86.0300 190.0000
86.0400 175.0000
86.0500 156.0000
86.0600 155.0000
86.0700 174.0000
86.0800 196.0000
86.0900 171.0000
86.1000 164.0000
86.1100 176.0000
86.1200 166.0000
86.1300 193.0000
86.1400 167.0000
86.1500 200.0000
86.1600 183.0000
86.1700 185.0000
86.1800 188.0000
86.1900 178.0000
86.2000 193.0000
86.2100 198.0000
86.2200 210.0000
86.2300 195.0000
86.2400 186.0000
86.2500 185.0000
86.2600 196.0000
86.2700 191.0000
86.2800 201.0000
86.2900 210.0000
86.3000 196.0000
86.3100 181.0000
86.3200 186.0000
86.3300 188.0000
86.3400 188.0000
86.3500 200.0000
86.3600 182.0000
86.3700 177.0000
86.3800 166.0000
86.3900 208.0000
86.4000 195.0000
86.4100 190.0000
86.4200 210.0000
86.4300 181.0000
86.4400 182.0000
86.4500 181.0000
86.4600 185.0000
86.4700 187.0000
86.4800 172.0000
86.4900 181.0000
86.5000 172.0000
86.5100 175.0000
86.5200 183.0000
86.5300 181.0000
86.5400 191.0000
86.5500 171.0000
86.5600 180.0000
86.5700 151.0000
86.5800 164.0000
86.5900 176.0000
86.6000 179.0000
86.6100 183.0000
86.6200 156.0000
86.6300 172.0000
86.6400 178.0000
86.6500 170.0000
86.6600 177.0000
86.6700 195.0000
86.6800 173.0000
86.6900 161.0000
86.7000 178.0000
86.7100 183.0000
86.7200 166.0000
86.7300 193.0000
86.7400 188.0000
86.7500 185.0000
86.7600 192.0000
86.7700 190.0000
86.7800 185.0000
86.7900 194.0000
86.8000 181.0000
86.8100 200.0000
86.8200 203.0000
86.8300 194.0000
86.8400 192.0000
86.8500 173.0000
86.8600 184.0000
86.8700 203.0000
86.8800 203.0000
86.8900 172.0000
86.9000 200.0000
86.9100 196.0000
86.9200 203.0000
86.9300 198.0000
86.9400 181.0000
86.9500 181.0000
86.9600 180.0000
86.9700 176.0000
86.9800 178.0000
86.9900 170.0000
87.0000 175.0000
87.0100 187.0000
87.0200 201.0000
87.0300 194.0000
87.0400 177.0000
87.0500 173.0000
87.0600 204.0000
87.0700 186.0000
87.0800 157.0000
87.0900 169.0000
87.1000 163.0000
87.1100 166.0000
87.1200 167.0000
87.1300 174.0000
87.1400 175.0000
87.1500 175.0000
87.1600 196.0000
87.1700 186.0000
87.1800 188.0000
87.1900 170.0000
87.2000 212.0000
87.2100 172.0000
87.2200 172.0000
87.2300 184.0000
87.2400 194.0000
87.2500 198.0000
87.2600 170.0000
87.2700 181.0000
87.2800 207.0000
87.2900 180.0000
87.3000 199.0000
87.3100 197.0000
87.3200 196.0000
87.3300 199.0000
87.3400 223.0000
87.3500 237.0000
87.3600 217.0000
87.3700 233.0000
87.3800 223.0000
87.3900 219.0000
87.4000 228.0000
87.4100 224.0000
87.4200 206.0000
87.4300 236.0000
87.4400 237.0000
87.4500 240.0000
87.4600 245.0000
87.4700 239.0000
87.4800 223.0000
87.4900 230.0000
87.5000 231.0000
87.5100 253.0000
87.5200 212.0000
87.5300 214.0000
87.5400 233.0000
87.5500 231.0000
87.5600 226.0000
87.5700 233.0000
87.5800 214.0000
87.5900 221.0000
87.6000 215.0000
87.6100 230.0000
87.6200 216.0000
87.6300 213.0000
87.6400 208.0000
87.6500 220.0000
87.6600 220.0000
87.6700 176.0000
87.6800 197.0000
87.6900 201.0000
87.7000 203.0000
87.7100 209.0000
87.7200 212.0000
87.7300 213.0000
87.7400 245.0000
87.7500 224.0000
87.7600 185.0000
87.7700 221.0000
87.7800 228.0000
87.7900 231.0000
87.8000 232.0000
87.8100 230.0000
87.8200 233.0000
87.8300 230.0000
87.8400 261.0000
87.8500 241.0000
87.8600 260.0000
87.8700 251.0000
87.8800 262.0000
87.8900 256.0000
87.9000 265.0000
87.9100 282.0000
87.9200 284.0000
87.9300 264.0000
87.9400 258.0000
87.9500 276.0000
87.9600 298.0000
87.9700 306.0000
87.9800 310.0000
87.9900 308.0000
88.0000 330.0000
88.0100 309.0000
88.0200 342.0000
88.0300 376.0000
88.0400 337.0000
88.0500 350.0000
88.0600 357.0000
88.0700 390.0000
88.0800 371.0000
88.0900 398.0000
88.1000 319.0000
88.1100 338.0000
88.1200 359.0000
88.1300 363.0000
88.1400 355.0000
88.1500 371.0000
88.1600 387.0000
88.1700 380.0000
88.1800 350.0000
88.1900 352.0000
88.2000 370.0000
88.2100 325.0000
88.2200 317.0000
88.2300 354.0000
88.2400 333.0000
88.2500 338.0000
88.2600 340.0000
88.2700 324.0000
88.2800 358.0000
88.2900 319.0000
88.3000 301.0000
88.3100 302.0000
88.3200 324.0000
88.3300 315.0000
88.3400 321.0000
88.3500 352.0000
88.3600 368.0000
88.3700 337.0000
88.3800 332.0000
88.3900 355.0000
88.4000 403.0000
88.4100 382.0000
88.4200 421.0000
88.4300 427.0000
88.4400 464.0000
88.4500 460.0000
88.4600 474.0000
88.4700 529.0000
88.4800 539.0000
88.4900 528.0000
88.5000 576.0000
88.5100 652.0000
88.5200 680.0000
88.5300 704.0000
88.5400 757.0000
88.5500 792.0000
88.5600 880.0000
88.5700 895.0000
88.5800 967.0000
88.5900 1047.0000
88.6000 1083.0000
88.6100 1096.0000
88.6200 1165.0000
88.6300 1266.0000
88.6400 1262.0000
88.6500 1379.0000
88.6600 1414.0000
88.6700 1472.0000
88.6800 1588.0000
88.6900 1728.0000
88.7000 1677.0000
88.7100 1714.0000
88.7200 1771.0000
88.7300 1908.0000
88.7400 2002.0000
88.7500 2005.0000
88.7600 2091.0000
88.7700 2236.0000
88.7800 2219.0000
88.7900 2294.0000
88.8000 2401.0000
88.8100 2388.0000
88.8200 2501.0000
88.8300 2466.0000
88.8400 2578.0000
88.8500 2703.0000
88.8600 2707.0000
88.8700 2729.0000
88.8800 2719.0000
88.8900 2789.0000
88.9000 2830.0000
88.9100 2934.0000
88.9200 2881.0000
88.9300 2958.0000
88.9400 2938.0000
88.9500 2968.0000
88.9600 3027.0000
88.9700 2906.0000
88.9800 2956.0000
88.9900 2944.0000
89.0000 2935.0000
89.0100 2974.0000
89.0200 2975.0000
89.0300 2918.0000
89.0400 3029.0000
89.0500 2951.0000
89.0600 2944.0000
89.0700 2874.0000
89.0800 2809.0000
89.0900 2817.0000
89.1000 2792.0000
89.1100 2679.0000
89.1200 2723.0000
89.1300 2538.0000
89.1400 2534.0000
89.1500 2567.0000
89.1600 2486.0000
89.1700 2482.0000
89.1800 2379.0000
89.1900 2332.0000
89.2000 2327.0000
89.2100 2226.0000
89.2200 2243.0000
89.2300 2046.0000
89.2400 2034.0000
89.2500 2005.0000
89.2600 1956.0000
89.2700 1867.0000
89.2800 1833.0000
89.2900 1719.0000
89.3000 1708.0000
89.3100 1627.0000
89.3200 1550.0000
89.3300 1536.0000
89.3400 1457.0000
89.3500 1386.0000
89.3600 1325.0000
89.3700 1249.0000
89.3800 1213.0000
89.3900 1111.0000
89.4000 1153.0000
89.4100 1063.0000
89.4200 988.0000
89.4300 936.0000
89.4400 870.0000
89.4500 898.0000
89.4600 856.0000
89.4700 790.0000
89.4800 737.0000
89.4900 736.0000
89.5000 695.0000
89.5100 656.0000
89.5200 607.0000
89.5300 584.0000
89.5400 548.0000
89.5500 560.0000
89.5600 543.0000
89.5700 466.0000
89.5800 453.0000
89.5900 454.0000
89.6000 439.0000
89.6100 414.0000
89.6200 415.0000
89.6300 399.0000
89.6400 395.0000
89.6500 366.0000
89.6600 365.0000
89.6700 329.0000
89.6800 329.0000
89.6900 323.0000
89.7000 297.0000
89.7100 333.0000
89.7200 306.0000
89.7300 319.0000
89.7400 315.0000
89.7500 311.0000
89.7600 305.0000
89.7700 280.0000
89.7800 274.0000
89.7900 280.0000
89.8000 309.0000
89.8100 306.0000
89.8200 324.0000
89.8300 315.0000
89.8400 297.0000
89.8500 291.0000
89.8600 288.0000
89.8700 306.0000
89.8800 313.0000
89.8900 277.0000
89.9000 297.0000
89.9100 312.0000
89.9200 307.0000
89.9300 305.0000
89.9400 297.0000
89.9500 338.0000
89.9600 324.0000
89.9700 314.0000
89.9800 293.0000
89.9900 299.0000
90.0000 319.0000
90.0100 314.0000
90.0200 302.0000
90.0300 318.0000
90.0400 310.0000
90.0500 304.0000
90.0600 319.0000
90.0700 312.0000
90.0800 315.0000
90.0900 277.0000
90.1000 264.0000
90.1100 250.0000
90.1200 278.0000
90.1300 276.0000
90.1400 302.0000
90.1500 269.0000
90.1600 260.0000
90.1700 270.0000
90.1800 297.0000
90.1900 274.0000
90.2000 283.0000
90.2100 281.0000
90.2200 290.0000
90.2300 279.0000
90.2400 277.0000
90.2500 277.0000
90.2600 265.0000
90.2700 266.0000
90.2800 251.0000
90.2900 249.0000
90.3000 253.0000
90.3100 272.0000
90.3200 268.0000
90.3300 269.0000
90.3400 267.0000
90.3500 236.0000
90.3600 281.0000
90.3700 260.0000
90.3800 297.0000
90.3900 252.0000
90.4000 259.0000
90.4100 275.0000
90.4200 289.0000
90.4300 271.0000
90.4400 283.0000
90.4500 257.0000
90.4600 286.0000
90.4700 270.0000
90.4800 249.0000
90.4900 268.0000
90.5000 277.0000
90.5100 275.0000
90.5200 284.0000
90.5300 284.0000
90.5400 291.0000
90.5500 310.0000
90.5600 270.0000
90.5700 311.0000
90.5800 310.0000
90.5900 274.0000
90.6000 305.0000
90.6100 286.0000
90.6200 264.0000
90.6300 262.0000
90.6400 278.0000
90.6500 277.0000
90.6600 277.0000
90.6700 279.0000
90.6800 311.0000
90.6900 297.0000
90.7000 268.0000
90.7100 287.0000
90.7200 295.0000
90.7300 305.0000
90.7400 301.0000
90.7500 296.0000
90.7600 312.0000
90.7700 280.0000
90.7800 283.0000
90.7900 299.0000
90.8000 287.0000
90.8100 292.0000
90.8200 301.0000
90.8300 283.0000
90.8400 302.0000
90.8500 292.0000
90.8600 302.0000
90.8700 301.0000
90.8800 292.0000
90.8900 275.0000
90.9000 325.0000
90.9100 305.0000
90.9200 301.0000
90.9300 340.0000
90.9400 325.0000
90.9500 322.0000
90.9600 305.0000
90.9700 310.0000
90.9800 312.0000
90.9900 306.0000
91.0000 318.0000
91.0100 324.0000
91.0200 312.0000
91.0300 333.0000
91.0400 299.0000
91.0500 325.0000
91.0600 317.0000
91.0700 320.0000
91.0800 351.0000
91.0900 332.0000
91.1000 313.0000
91.1100 329.0000
91.1200 338.0000
91.1300 349.0000
91.1400 339.0000
91.1500 347.0000
91.1600 347.0000
91.1700 322.0000
91.1800 372.0000
91.1900 340.0000
91.2000 371.0000
91.2100 354.0000
91.2200 367.0000
91.2300 353.0000
91.2400 344.0000
91.2500 343.0000
91.2600 390.0000
91.2700 373.0000
91.2800 386.0000
91.2900 357.0000
91.3000 365.0000
91.3100 386.0000
91.3200 383.0000
91.3300 360.0000
91.3400 404.0000
91.3500 369.0000
91.3600 415.0000
91.3700 381.0000
91.3800 405.0000
91.3900 365.0000
91.4000 380.0000
91.4100 350.0000
91.4200 408.0000
91.4300 404.0000
91.4400 375.0000
91.4500 396.0000
91.4600 387.0000
91.4700 359.0000
91.4800 376.0000
91.4900 390.0000
91.5000 383.0000
91.5100 400.0000
91.5200 420.0000
91.5300 405.0000
91.5400 390.0000
91.5500 425.0000
91.5600 435.0000
91.5700 436.0000
91.5800 391.0000
91.5900 398.0000
91.6000 399.0000
91.6100 430.0000
91.6200 458.0000
91.6300 457.0000
91.6400 448.0000
91.6500 422.0000
91.6600 462.0000
91.6700 420.0000
91.6800 446.0000
91.6900 434.0000
91.7000 485.0000
91.7100 466.0000
91.7200 436.0000
91.7300 434.0000
91.7400 456.0000
91.7500 448.0000
91.7600 482.0000
91.7700 444.0000
91.7800 484.0000
91.7900 470.0000
91.8000 450.0000
91.8100 469.0000
91.8200 462.0000
91.8300 486.0000
91.8400 517.0000
91.8500 492.0000
91.8600 481.0000
91.8700 502.0000
91.8800 496.0000
91.8900 507.0000
91.9000 543.0000
91.9100 493.0000
91.9200 520.0000
91.9300 487.0000
91.9400 559.0000
91.9500 534.0000
91.9600 514.0000
91.9700 551.0000
91.9800 519.0000
91.9900 539.0000
92.0000 519.0000
92.0100 554.0000
92.0200 528.0000
92.0300 504.0000
92.0400 558.0000
92.0500 551.0000
92.0600 573.0000
92.0700 565.0000
92.0800 594.0000
92.0900 573.0000
92.1000 549.0000
92.1100 567.0000
92.1200 598.0000
92.1300 553.0000
92.1400 596.0000
92.1500 584.0000
92.1600 574.0000
92.1700 588.0000
92.1800 592.0000
92.1900 598.0000
92.2000 632.0000
92.2100 599.0000
92.2200 623.0000
92.2300 621.0000
92.2400 652.0000
92.2500 662.0000
92.2600 664.0000
92.2700 651.0000
92.2800 649.0000
92.2900 701.0000
92.3000 689.0000
92.3100 711.0000
92.3200 806.0000
92.3300 791.0000
92.3400 811.0000
92.3500 819.0000
92.3600 800.0000
92.3700 867.0000
92.3800 871.0000
92.3900 884.0000
92.4000 859.0000
92.4100 882.0000
92.4200 850.0000
92.4300 914.0000
92.4400 900.0000
92.4500 911.0000
92.4600 905.0000
92.4700 913.0000
92.4800 907.0000
92.4900 935.0000
92.5000 900.0000
92.5100 967.0000
92.5200 942.0000
92.5300 946.0000
92.5400 932.0000
92.5500 980.0000
92.5600 995.0000
92.5700 969.0000
92.5800 1001.0000
92.5900 986.0000
92.6000 1015.0000
92.6100 1066.0000
92.6200 1040.0000
92.6300 1061.0000
92.6400 1053.0000
92.6500 1000.0000
92.6600 1013.0000
92.6700 1041.0000
92.6800 1020.0000
92.6900 1117.0000
92.7000 1078.0000
92.7100 1085.0000
92.7200 1187.0000
92.7300 1110.0000
92.7400 1120.0000
92.7500 1141.0000
92.7600 1122.0000
92.7700 1154.0000
92.7800 1188.0000
92.7900 1193.0000
92.8000 1216.0000
92.8100 1195.0000
92.8200 1226.0000
92.8300 1279.0000
92.8400 1252.0000
92.8500 1251.0000
92.8600 1285.0000
92.8700 1299.0000
92.8800 1324.0000
92.8900 1335.0000
92.9000 1368.0000
92.9100 1360.0000
92.9200 1374.0000
92.9300 1452.0000
92.9400 1413.0000
92.9500 1434.0000
92.9600 1587.0000
92.9700 1616.0000
92.9800 1713.0000
92.9900 1823.0000
93.0000 1878.0000
93.0100 1944.0000
93.0200 2021.0000
93.0300 2065.0000
93.0400 2062.0000
93.0500 2161.0000
93.0600 2106.0000
93.0700 2128.0000
93.0800 2091.0000
93.0900 2035.0000
93.1000 2071.0000
93.1100 2015.0000
93.1200 2036.0000
93.1300 2051.0000
93.1400 2011.0000
93.1500 1986.0000
93.1600 1999.0000
93.1700 1919.0000
93.1800 2000.0000
93.1900 2054.0000
93.2000 2077.0000
93.2100 2087.0000
93.2200 2177.0000
93.2300 2126.0000
93.2400 2168.0000
93.2500 2200.0000
93.2600 2164.0000
93.2700 2190.0000
93.2800 2171.0000
93.2900 2277.0000
93.3000 2265.0000
93.3100 2314.0000
93.3200 2333.0000
93.3300 2321.0000
93.3400 2301.0000
93.3500 2273.0000
93.3600 2272.0000
93.3700 2384.0000
93.3800 2382.0000
93.3900 2390.0000
93.4000 2400.0000
93.4100 2403.0000
93.4200 2406.0000
93.4300 2447.0000
93.4400 2529.0000
93.4500 2509.0000
93.4600 2563.0000
93.4700 2536.0000
93.4800 2549.0000
93.4900 2582.0000
93.5000 2616.0000
93.5100 2663.0000
93.5200 2693.0000
93.5300 2593.0000
93.5400 2782.0000
93.5500 2873.0000
93.5600 2867.0000
93.5700 2841.0000
93.5800 2913.0000
93.5900 2982.0000
93.6000 2950.0000
93.6100 2986.0000
93.6200 3103.0000
93.6300 3106.0000
93.6400 3198.0000
93.6500 3244.0000
93.6600 3251.0000
93.6700 3434.0000
93.6800 3276.0000
93.6900 3425.0000
93.7000 3577.0000
93.7100 3620.0000
93.7200 3589.0000
93.7300 3645.0000
93.7400 3861.0000
93.7500 3876.0000
93.7600 4061.0000
93.7700 4237.0000
93.7800 4373.0000
93.7900 4464.0000
93.8000 4736.0000
93.8100 4742.0000
93.8200 5115.0000
93.8300 5515.0000
93.8400 5865.0000
93.8500 6260.0000
93.8600 6881.0000
93.8700 7600.0000
93.8800 8798.0000
93.8900 10286.0000
93.9000 13047.0000
93.9100 17533.0000
93.9200 26084.0000
93.9300 40734.0000
93.9400 65982.0000
93.9500 104877.0000
93.9600 165525.0000
93.9700 264961.0000
93.9800 439269.0000
93.9900 730114.0000
94.0000 1188280.0000
94.0100 1880923.0000
94.0200 2897978.0000
94.0300 4166590.0000
94.0400 5144459.0000
94.0500 5164250.0000
94.0600 4171693.0000
94.0700 2783058.0000
94.0800 1599128.0000
94.0900 819039.0000
94.1000 391530.0000
94.1100 192198.0000
94.1200 104499.0000
94.1300 62432.0000
94.1400 39168.0000
94.1500 25384.0000
94.1600 17665.0000
94.1700 13173.0000
94.1800 10430.0000
94.1900 8866.0000
94.2000 7859.0000
94.2100 7063.0000
94.2200 6495.0000
94.2300 5928.0000
94.2400 5705.0000
94.2500 5558.0000
94.2600 5374.0000
94.2700 5084.0000
94.2800 5107.0000
94.2900 5068.0000
94.3000 4899.0000
94.3100 5029.0000
94.3200 4733.0000
94.3300 4469.0000
94.3400 4129.0000
94.3500 4060.0000
94.3600 3858.0000
94.3700 3653.0000
94.3800 3553.0000
94.3900 3648.0000
94.4000 3369.0000
94.4100 3294.0000
94.4200 3224.0000
94.4300 3126.0000
94.4400 3097.0000
94.4500 3100.0000
94.4600 3055.0000
94.4700 2907.0000
94.4800 2877.0000
94.4900 2851.0000
94.5000 2827.0000
94.5100 2779.0000
94.5200 2790.0000
94.5300 2720.0000
94.5400 2715.0000
94.5500 2650.0000
94.5600 2611.0000
94.5700 2638.0000
94.5800 2596.0000
94.5900 2525.0000
94.6000 2469.0000
94.6100 2440.0000
94.6200 2487.0000
94.6300 2501.0000
94.6400 2382.0000
94.6500 2357.0000
94.6600 2358.0000
94.6700 2327.0000
94.6800 2290.0000
94.6900 2284.0000
94.7000 2259.0000
94.7100 2259.0000
94.7200 2285.0000
94.7300 2293.0000
94.7400 2205.0000
94.7500 2249.0000
94.7600 2146.0000
94.7700 2159.0000
94.7800 2232.0000
94.7900 2145.0000
94.8000 2182.0000
94.8100 2124.0000
94.8200 2067.0000
94.8300 2145.0000
94.8400 2101.0000
94.8500 2047.0000
94.8600 2107.0000
94.8700 1981.0000
94.8800 1966.0000
94.8900 1894.0000
94.9000 1969.0000
94.9100 1914.0000
94.9200 1872.0000
94.9300 1912.0000
94.9400 1917.0000
94.9500 1801.0000
94.9600 1952.0000
94.9700 1908.0000
94.9800 1879.0000
94.9900 2043.0000
95.0000 1976.0000
95.0100 1961.0000
95.0200 2008.0000
95.0300 1966.0000
95.0400 1948.0000
95.0500 1990.0000
95.0600 2000.0000
95.0700 1912.0000
95.0800 1884.0000
95.0900 1840.0000
95.1000 1673.0000
95.1100 1612.0000
95.1200 1458.0000
95.1300 1470.0000
95.1400 1420.0000
95.1500 1325.0000
95.1600 1347.0000
95.1700 1290.0000
95.1800 1238.0000
95.1900 1264.0000
95.2000 1323.0000
95.2100 1212.0000
95.2200 1256.0000
95.2300 1229.0000
95.2400 1246.0000
95.2500 1206.0000
95.2600 1114.0000
95.2700 1199.0000
95.2800 1147.0000
95.2900 1165.0000
95.3000 1227.0000
95.3100 1194.0000
95.3200 1119.0000
95.3300 1105.0000
95.3400 1111.0000
95.3500 1122.0000
95.3600 1057.0000
95.3700 1044.0000
95.3800 998.0000
95.3900 1021.0000
95.4000 1023.0000
95.4100 1035.0000
95.4200 1040.0000
95.4300 1025.0000
95.4400 971.0000
95.4500 1020.0000
95.4600 1032.0000
95.4700 963.0000
95.4800 955.0000
95.4900 1016.0000
95.5000 984.0000
95.5100 987.0000
95.5200 947.0000
95.5300 923.0000
95.5400 931.0000
95.5500 999.0000
95.5600 890.0000
95.5700 931.0000
95.5800 917.0000
95.5900 868.0000
95.6000 888.0000
95.6100 939.0000
95.6200 896.0000
95.6300 855.0000
95.6400 883.0000
95.6500 896.0000
95.6600 835.0000
95.6700 820.0000
95.6800 796.0000
95.6900 800.0000
95.7000 830.0000
95.7100 846.0000
95.7200 833.0000
95.7300 837.0000
95.7400 840.0000
95.7500 815.0000
95.7600 768.0000
95.7700 771.0000
95.7800 805.0000
95.7900 789.0000
95.8000 739.0000
95.8100 787.0000
95.8200 805.0000
95.8300 739.0000
95.8400 726.0000
95.8500 765.0000
95.8600 771.0000
95.8700 740.0000
95.8800 750.0000
95.8900 767.0000
95.9000 667.0000
95.9100 640.0000
95.9200 702.0000
95.9300 702.0000
95.9400 651.0000
95.9500 608.0000
95.9600 574.0000
95.9700 599.0000
95.9800 564.0000
95.9900 582.0000
96.0000 532.0000
96.0100 558.0000
96.0200 532.0000
96.0300 547.0000
96.0400 555.0000
96.0500 550.0000
96.0600 535.0000
96.0700 555.0000
96.0800 557.0000
96.0900 531.0000
96.1000 515.0000
96.1100 518.0000
96.1200 523.0000
96.1300 540.0000
96.1400 491.0000
96.1500 507.0000
96.1600 477.0000
96.1700 513.0000
96.1800 493.0000
96.1900 511.0000
96.2000 490.0000
96.2100 488.0000
96.2200 495.0000
96.2300 493.0000
96.2400 476.0000
96.2500 477.0000
96.2600 456.0000
96.2700 481.0000
96.2800 457.0000
96.2900 454.0000
96.3000 447.0000
96.3100 462.0000
96.3200 435.0000
96.3300 458.0000
96.3400 435.0000
96.3500 433.0000
96.3600 457.0000
96.3700 440.0000
96.3800 442.0000
96.3900 459.0000
96.4000 454.0000
96.4100 431.0000
96.4200 419.0000
96.4300 433.0000
96.4400 418.0000
96.4500 425.0000
96.4600 453.0000
96.4700 421.0000
96.4800 425.0000
96.4900 447.0000
96.5000 404.0000
96.5100 434.0000
96.5200 422.0000
96.5300 396.0000
96.5400 393.0000
96.5500 397.0000
96.5600 381.0000
96.5700 413.0000
96.5800 396.0000
96.5900 414.0000
96.6000 403.0000
96.6100 391.0000
96.6200 402.0000
96.6300 364.0000
96.6400 395.0000
96.6500 353.0000
96.6600 396.0000
96.6700 375.0000
96.6800 390.0000
96.6900 346.0000
96.7000 350.0000
96.7100 371.0000
96.7200 384.0000
96.7300 381.0000
96.7400 379.0000
96.7500 371.0000
96.7600 341.0000
96.7700 355.0000
96.7800 355.0000
96.7900 367.0000
96.8000 340.0000
96.8100 354.0000
96.8200 361.0000
96.8300 369.0000
96.8400 358.0000
96.8500 340.0000
96.8600 355.0000
96.8700 353.0000
96.8800 375.0000
96.8900 351.0000
96.9000 303.0000
96.9100 349.0000
96.9200 375.0000
96.9300 333.0000
96.9400 308.0000
96.9500 314.0000
96.9600 365.0000
96.9700 361.0000
96.9800 332.0000
96.9900 336.0000
97.0000 332.0000
97.0100 334.0000
97.0200 322.0000
97.0300 297.0000
97.0400 352.0000
97.0500 315.0000
97.0600 316.0000
97.0700 305.0000
97.0800 320.0000
97.0900 292.0000
97.1000 304.0000
97.1100 310.0000
97.1200 297.0000
97.1300 298.0000
97.1400 301.0000
97.1500 295.0000
97.1600 330.0000
97.1700 313.0000
97.1800 281.0000
97.1900 299.0000
97.2000 302.0000
97.2100 303.0000
97.2200 267.0000
97.2300 308.0000
97.2400 270.0000
97.2500 282.0000
97.2600 295.0000
97.2700 305.0000
97.2800 312.0000
97.2900 306.0000
97.3000 294.0000
97.3100 277.0000
97.3200 295.0000
97.3300 291.0000
97.3400 266.0000
97.3500 276.0000
97.3600 279.0000
97.3700 292.0000
97.3800 288.0000
97.3900 289.0000
97.4000 284.0000
97.4100 267.0000
97.4200 267.0000
97.4300 275.0000
97.4400 279.0000
97.4500 276.0000
97.4600 272.0000
97.4700 279.0000
97.4800 263.0000
97.4900 278.0000
97.5000 254.0000
97.5100 249.0000
97.5200 262.0000
97.5300 260.0000
97.5400 254.0000
97.5500 250.0000
97.5600 242.0000
97.5700 220.0000
97.5800 248.0000
97.5900 273.0000
97.6000 252.0000
97.6100 244.0000
97.6200 245.0000
97.6300 235.0000
97.6400 242.0000
97.6500 241.0000
97.6600 227.0000
97.6700 269.0000
97.6800 250.0000
97.6900 257.0000
97.7000 254.0000
97.7100 241.0000
97.7200 257.0000
97.7300 244.0000
97.7400 245.0000
97.7500 225.0000
97.7600 252.0000
97.7700 270.0000
97.7800 238.0000
97.7900 240.0000
97.8000 234.0000
97.8100 236.0000
97.8200 208.0000
97.8300 219.0000
97.8400 226.0000
97.8500 232.0000
97.8600 219.0000
97.8700 212.0000
97.8800 243.0000
97.8900 223.0000
97.9000 232.0000
97.9100 239.0000
97.9200 205.0000
97.9300 208.0000
97.9400 248.0000
97.9500 209.0000
97.9600 220.0000
97.9700 229.0000
97.9800 232.0000
97.9900 212.0000
98.0000 192.0000
98.0100 230.0000
98.0200 214.0000
98.0300 210.0000
98.0400 230.0000
98.0500 210.0000
98.0600 227.0000
98.0700 226.0000
98.0800 212.0000
98.0900 218.0000
98.1000 214.0000
98.1100 208.0000
98.1200 213.0000
98.1300 216.0000
98.1400 196.0000
98.1500 198.0000
98.1600 211.0000
98.1700 217.0000
98.1800 214.0000
98.1900 230.0000
98.2000 220.0000
98.2100 183.0000
98.2200 197.0000
98.2300 215.0000
98.2400 213.0000
98.2500 198.0000
98.2600 194.0000
98.2700 195.0000
98.2800 230.0000
98.2900 233.0000
98.3000 217.0000
98.3100 196.0000
98.3200 202.0000
98.3300 235.0000
98.3400 197.0000
98.3500 183.0000
98.3600 192.0000
98.3700 214.0000
98.3800 209.0000
98.3900 214.0000
98.4000 202.0000
98.4100 216.0000
98.4200 209.0000
98.4300 190.0000
98.4400 201.0000
98.4500 191.0000
98.4600 180.0000
98.4700 193.0000
98.4800 217.0000
98.4900 202.0000
98.5000 200.0000
98.5100 217.0000
98.5200 189.0000
98.5300 193.0000
98.5400 189.0000
98.5500 177.0000
98.5600 190.0000
98.5700 207.0000
98.5800 238.0000
98.5900 213.0000
98.6000 204.0000
98.6100 170.0000
98.6200 187.0000
98.6300 189.0000
98.6400 206.0000
98.6500 180.0000
98.6600 184.0000
98.6700 192.0000
98.6800 198.0000
98.6900 175.0000
98.7000 189.0000
98.7100 211.0000
98.7200 179.0000
98.7300 209.0000
98.7400 189.0000
98.7500 198.0000
98.7600 178.0000
98.7700 195.0000
98.7800 174.0000
98.7900 195.0000
98.8000 189.0000
98.8100 188.0000
98.8200 186.0000
98.8300 184.0000
98.8400 193.0000
98.8500 182.0000
98.8600 218.0000
98.8700 171.0000
98.8800 167.0000
98.8900 191.0000
98.9000 175.0000
98.9100 178.0000
98.9200 179.0000
98.9300 197.0000
98.9400 194.0000
98.9500 188.0000
98.9600 180.0000
98.9700 167.0000
98.9800 178.0000
98.9900 175.0000
99.0000 176.0000
99.0100 186.0000
99.0200 181.0000
99.0300 186.0000
99.0400 192.0000
99.0500 165.0000
99.0600 163.0000
99.0700 170.0000
99.0800 154.0000
99.0900 158.0000
99.1000 153.0000
99.1100 178.0000
99.1200 175.0000
99.1300 169.0000
99.1400 158.0000
99.1500 167.0000
99.1600 164.0000
99.1700 159.0000
99.1800 178.0000
99.1900 162.0000
99.2000 163.0000
99.2100 184.0000
99.2200 192.0000
99.2300 164.0000
99.2400 189.0000
99.2500 175.0000
99.2600 172.0000
99.2700 157.0000
99.2800 158.0000
99.2900 161.0000
99.3000 168.0000
99.3100 163.0000
99.3200 167.0000
99.3300 156.0000
99.3400 162.0000
99.3500 155.0000
99.3600 194.0000
99.3700 190.0000
99.3800 167.0000
99.3900 175.0000
99.4000 181.0000
99.4100 170.0000
99.4200 154.0000
99.4300 172.0000
99.4400 172.0000
99.4500 171.0000
99.4600 140.0000
99.4700 161.0000
99.4800 156.0000
99.4900 164.0000
99.5000 146.0000
99.5100 164.0000
99.5200 153.0000
99.5300 165.0000
99.5400 151.0000
99.5500 156.0000
99.5600 150.0000
99.5700 146.0000
99.5800 147.0000
99.5900 176.0000
99.6000 147.0000
99.6100 160.0000
99.6200 146.0000
99.6300 173.0000
99.6400 151.0000
99.6500 134.0000
99.6600 170.0000
99.6700 141.0000
99.6800 148.0000
99.6900 148.0000
99.7000 155.0000
99.7100 157.0000
99.7200 160.0000
99.7300 153.0000
99.7400 187.0000
99.7500 156.0000
99.7600 145.0000
99.7700 144.0000
99.7800 171.0000
99.7900 156.0000
99.8000 145.0000
99.8100 153.0000
99.8200 167.0000
99.8300 141.0000
99.8400 145.0000
99.8500 136.0000
99.8600 167.0000
99.8700 187.0000
99.8800 152.0000
99.8900 134.0000
99.9000 157.0000
99.9100 154.0000
99.9200 149.0000
99.9300 171.0000
99.9400 162.0000
99.9500 130.0000
99.9600 152.0000
99.9700 157.0000
99.9800 155.0000
99.9900 157.0000
100.0000 150.0000
100.0100 150.0000
100.0200 142.0000
100.0300 130.0000
100.0400 151.0000
100.0500 141.0000
100.0600 151.0000
100.0700 146.0000
100.0800 153.0000
100.0900 158.0000
100.1000 163.0000
100.1100 164.0000
100.1200 141.0000
100.1300 139.0000
100.1400 146.0000
100.1500 141.0000
100.1600 156.0000
100.1700 146.0000
100.1800 134.0000
100.1900 145.0000
100.2000 140.0000
100.2100 156.0000
100.2200 150.0000
100.2300 152.0000
100.2400 160.0000
100.2500 155.0000
100.2600 136.0000
100.2700 135.0000
100.2800 152.0000
100.2900 160.0000
100.3000 147.0000
100.3100 162.0000
100.3200 139.0000
100.3300 123.0000
100.3400 136.0000
100.3500 161.0000
100.3600 133.0000
100.3700 153.0000
100.3800 151.0000
100.3900 131.0000
100.4000 146.0000
100.4100 137.0000
100.4200 154.0000
100.4300 136.0000
100.4400 130.0000
100.4500 137.0000
100.4600 139.0000
100.4700 143.0000
100.4800 137.0000
100.4900 153.0000
100.5000 135.0000
100.5100 141.0000
100.5200 148.0000
100.5300 137.0000
100.5400 124.0000
100.5500 140.0000
100.5600 117.0000
100.5700 117.0000
100.5800 149.0000
100.5900 157.0000
100.6000 147.0000
100.6100 141.0000
100.6200 141.0000
100.6300 130.0000
100.6400 114.0000
100.6500 133.0000
100.6600 119.0000
100.6700 118.0000
100.6800 145.0000
100.6900 145.0000
100.7000 132.0000
100.7100 124.0000
100.7200 130.0000
100.7300 114.0000
100.7400 138.0000
100.7500 123.0000
100.7600 125.0000
100.7700 108.0000
100.7800 120.0000
100.7900 108.0000
100.8000 136.0000
100.8100 139.0000
100.8200 120.0000
100.8300 122.0000
100.8400 132.0000
100.8500 139.0000
100.8600 126.0000
100.8700 130.0000
100.8800 132.0000
100.8900 148.0000
100.9000 149.0000
100.9100 139.0000
100.9200 112.0000
100.9300 151.0000
100.9400 142.0000
100.9500 120.0000
100.9600 102.0000
100.9700 111.0000
100.9800 139.0000
100.9900 113.0000
101.0000 140.0000
101.0100 132.0000
101.0200 103.0000
101.0300 98.0000
101.0400 132.0000
101.0500 131.0000
101.0600 125.0000
101.0700 126.0000
101.0800 134.0000
101.0900 135.0000
101.1000 120.0000
101.1100 130.0000
101.1200 116.0000
101.1300 105.0000
101.1400 116.0000
101.1500 130.0000
101.1600 125.0000
101.1700 124.0000
101.1800 123.0000
101.1900 113.0000
101.2000 123.0000
101.2100 110.0000
101.2200 102.0000
101.2300 110.0000
101.2400 139.0000
101.2500 106.0000
101.2600 121.0000
101.2700 107.0000
101.2800 113.0000
101.2900 144.0000
101.3000 128.0000
101.3100 113.0000
101.3200 127.0000
101.3300 127.0000
101.3400 101.0000
101.3500 130.0000
101.3600 121.0000
101.3700 126.0000
101.3800 137.0000
101.3900 127.0000
101.4000 126.0000
101.4100 143.0000
101.4200 140.0000
101.4300 125.0000
101.4400 124.0000
101.4500 115.0000
101.4600 119.0000
101.4700 139.0000
101.4800 137.0000
101.4900 123.0000
101.5000 133.0000
101.5100 135.0000
101.5200 129.0000
101.5300 119.0000
101.5400 114.0000
101.5500 133.0000
101.5600 121.0000
101.5700 132.0000
101.5800 98.0000
101.5900 128.0000
101.6000 117.0000
101.6100 124.0000
101.6200 130.0000
101.6300 114.0000
101.6400 115.0000
101.6500 130.0000
101.6600 111.0000
101.6700 116.0000
101.6800 118.0000
101.6900 124.0000
101.7000 119.0000
101.7100 120.0000
101.7200 148.0000
101.7300 102.0000
101.7400 124.0000
101.7500 116.0000
101.7600 125.0000
101.7700 116.0000
101.7800 105.0000
101.7900 117.0000
101.8000 112.0000
101.8100 129.0000
101.8200 120.0000
101.8300 121.0000
101.8400 110.0000
101.8500 101.0000
101.8600 116.0000
101.8700 134.0000
101.8800 122.0000
101.8900 118.0000
101.9000 123.0000
101.9100 135.0000
101.9200 119.0000
101.9300 131.0000
101.9400 114.0000
101.9500 124.0000
101.9600 127.0000
101.9700 119.0000
101.9800 129.0000
101.9900 102.0000
102.0000 125.0000
102.0100 118.0000
102.0200 118.0000
102.0300 118.0000
102.0400 126.0000
102.0500 121.0000
102.0600 115.0000
102.0700 104.0000
102.0800 103.0000
102.0900 116.0000
102.1000 117.0000
102.1100 105.0000
102.1200 125.0000
102.1300 120.0000
102.1400 136.0000
102.1500 119.0000
102.1600 99.0000
102.1700 118.0000
102.1800 139.0000
102.1900 89.0000
102.2000 110.0000
102.2100 111.0000
102.2200 113.0000
102.2300 107.0000
102.2400 104.0000
102.2500 125.0000
102.2600 121.0000
102.2700 128.0000
102.2800 110.0000
102.2900 103.0000
102.3000 101.0000
102.3100 104.0000
102.3200 114.0000
102.3300 108.0000
102.3400 123.0000
102.3500 138.0000
102.3600 117.0000
102.3700 126.0000
102.3800 107.0000
102.3900 130.0000
102.4000 118.0000
102.4100 119.0000
102.4200 130.0000
102.4300 136.0000
102.4400 128.0000
102.4500 117.0000
102.4600 117.0000
102.4700 117.0000
102.4800 121.0000
102.4900 137.0000
102.5000 146.0000
102.5100 129.0000
102.5200 121.0000
102.5300 119.0000
102.5400 113.0000
102.5500 109.0000
102.5600 114.0000
102.5700 123.0000
102.5800 107.0000
102.5900 109.0000
102.6000 118.0000
102.6100 112.0000
102.6200 127.0000
102.6300 113.0000
102.6400 118.0000
102.6500 138.0000
102.6600 121.0000
102.6700 117.0000
102.6800 121.0000
102.6900 133.0000
102.7000 105.0000
102.7100 129.0000
102.7200 107.0000
102.7300 106.0000
102.7400 114.0000
102.7500 121.0000
102.7600 119.0000
102.7700 108.0000
102.7800 104.0000
102.7900 113.0000
102.8000 98.0000
102.8100 101.0000
102.8200 109.0000
102.8300 129.0000
102.8400 119.0000
102.8500 112.0000
102.8600 117.0000
102.8700 114.0000
102.8800 118.0000
102.8900 100.0000
102.9000 109.0000
102.9100 114.0000
102.9200 122.0000
102.9300 117.0000
102.9400 105.0000
102.9500 101.0000
102.9600 103.0000
102.9700 118.0000
102.9800 108.0000
102.9900 115.0000
103.0000 114.0000
103.0100 114.0000
103.0200 125.0000
103.0300 106.0000
103.0400 118.0000
103.0500 120.0000
103.0600 126.0000
103.0700 129.0000
103.0800 116.0000
103.0900 102.0000
103.1000 103.0000
103.1100 127.0000
103.1200 112.0000
103.1300 111.0000
103.1400 111.0000
103.1500 122.0000
103.1600 136.0000
103.1700 121.0000
103.1800 132.0000
103.1900 109.0000
103.2000 92.0000
103.2100 109.0000
103.2200 102.0000
103.2300 126.0000
103.2400 100.0000
103.2500 111.0000
103.2600 104.0000
103.2700 118.0000
103.2800 103.0000
103.2900 96.0000
103.3000 106.0000
103.3100 97.0000
103.3200 123.0000
103.3300 96.0000
103.3400 109.0000
103.3500 105.0000
103.3600 103.0000
103.3700 99.0000
103.3800 102.0000
103.3900 98.0000
103.4000 109.0000
103.4100 102.0000
103.4200 119.0000
103.4300 104.0000
103.4400 119.0000
103.4500 110.0000
103.4600 118.0000
103.4700 108.0000
103.4800 128.0000
103.4900 96.0000
103.5000 127.0000
103.5100 101.0000
103.5200 97.0000
103.5300 116.0000
103.5400 99.0000
103.5500 119.0000
103.5600 114.0000
103.5700 110.0000
103.5800 118.0000
103.5900 105.0000
103.6000 86.0000
103.6100 110.0000
103.6200 122.0000
103.6300 115.0000
103.6400 110.0000
103.6500 113.0000
103.6600 105.0000
103.6700 100.0000
103.6800 107.0000
103.6900 105.0000
103.7000 123.0000
103.7100 117.0000
103.7200 128.0000
103.7300 109.0000
103.7400 111.0000
103.7500 99.0000
103.7600 91.0000
103.7700 109.0000
103.7800 120.0000
103.7900 101.0000
103.8000 95.0000
103.8100 110.0000
103.8200 115.0000
103.8300 102.0000
103.8400 104.0000
103.8500 126.0000
103.8600 103.0000
103.8700 90.0000
103.8800 107.0000
103.8900 96.0000
103.9000 100.0000
103.9100 122.0000
103.9200 108.0000
103.9300 96.0000
103.9400 111.0000
103.9500 111.0000
103.9600 102.0000
103.9700 101.0000
103.9800 117.0000
103.9900 99.0000
104.0000 109.0000
104.0100 113.0000
104.0200 103.0000
104.0300 105.0000
104.0400 111.0000
104.0500 117.0000
104.0600 114.0000
104.0700 102.0000
104.0800 116.0000
104.0900 113.0000
104.1000 118.0000
104.1100 93.0000
104.1200 92.0000
104.1300 84.0000
104.1400 95.0000
104.1500 118.0000
104.1600 92.0000
104.1700 116.0000
104.1800 90.0000
104.1900 88.0000
104.2000 89.0000
104.2100 113.0000
104.2200 119.0000
104.2300 98.0000
104.2400 107.0000
104.2500 104.0000
104.2600 93.0000
104.2700 112.0000
104.2800 113.0000
104.2900 85.0000
104.3000 90.0000
104.3100 96.0000
104.3200 102.0000
104.3300 103.0000
104.3400 102.0000
104.3500 111.0000
104.3600 82.0000
104.3700 102.0000
104.3800 92.0000
104.3900 98.0000
104.4000 118.0000
104.4100 112.0000
104.4200 104.0000
104.4300 115.0000
104.4400 92.0000
104.4500 109.0000
104.4600 105.0000
104.4700 93.0000
104.4800 98.0000
104.4900 89.0000
104.5000 104.0000
104.5100 101.0000
104.5200 95.0000
104.5300 108.0000
104.5400 110.0000
104.5500 107.0000
104.5600 107.0000
104.5700 90.0000
104.5800 119.0000
104.5900 99.0000
104.6000 107.0000
104.6100 97.0000
104.6200 104.0000
104.6300 111.0000
104.6400 102.0000
104.6500 101.0000
104.6600 104.0000
104.6700 112.0000
104.6800 114.0000
104.6900 95.0000
104.7000 98.0000
104.7100 96.0000
104.7200 107.0000
104.7300 109.0000
104.7400 99.0000
104.7500 112.0000
104.7600 119.0000
104.7700 92.0000
104.7800 103.0000
104.7900 104.0000
104.8000 101.0000
104.8100 108.0000
104.8200 94.0000
104.8300 84.0000
104.8400 107.0000
104.8500 116.0000
104.8600 113.0000
104.8700 99.0000
104.8800 90.0000
104.8900 117.0000
104.9000 97.0000
104.9100 113.0000
104.9200 113.0000
104.9300 101.0000
104.9400 106.0000
104.9500 89.0000
104.9600 100.0000
104.9700 106.0000
104.9800 119.0000
104.9900 96.0000
105.0000 111.0000
105.0100 115.0000
105.0200 106.0000
105.0300 101.0000
105.0400 96.0000
105.0500 114.0000
105.0600 106.0000
105.0700 113.0000
105.0800 104.0000
105.0900 98.0000
105.1000 107.0000
105.1100 107.0000
105.1200 102.0000
105.1300 83.0000
105.1400 101.0000
105.1500 99.0000
105.1600 120.0000
105.1700 102.0000
105.1800 101.0000
105.1900 120.0000
105.2000 116.0000
105.2100 130.0000
105.2200 104.0000
105.2300 104.0000
105.2400 110.0000
105.2500 96.0000
105.2600 116.0000
105.2700 120.0000
105.2800 102.0000
105.2900 100.0000
105.3000 118.0000
105.3100 98.0000
105.3200 109.0000
105.3300 115.0000
105.3400 116.0000
105.3500 115.0000
105.3600 96.0000
105.3700 93.0000
105.3800 109.0000
105.3900 102.0000
105.4000 98.0000
105.4100 92.0000
105.4200 115.0000
105.4300 102.0000
105.4400 119.0000
105.4500 105.0000
105.4600 108.0000
105.4700 96.0000
105.4800 102.0000
105.4900 99.0000
105.5000 93.0000
105.5100 102.0000
105.5200 118.0000
105.5300 104.0000
105.5400 112.0000
105.5500 112.0000
105.5600 108.0000
105.5700 103.0000
105.5800 100.0000
105.5900 112.0000
105.6000 108.0000
105.6100 118.0000
105.6200 121.0000
105.6300 109.0000
105.6400 100.0000
105.6500 128.0000
105.6600 100.0000
105.6700 106.0000
105.6800 109.0000
105.6900 117.0000
105.7000 105.0000
105.7100 84.0000
105.7200 96.0000
105.7300 107.0000
105.7400 102.0000
105.7500 110.0000
105.7600 112.0000
105.7700 111.0000
105.7800 112.0000
105.7900 101.0000
105.8000 95.0000
105.8100 103.0000
105.8200 128.0000
105.8300 117.0000
105.8400 109.0000
105.8500 100.0000
105.8600 122.0000
105.8700 126.0000
105.8800 107.0000
105.8900 121.0000
105.9000 114.0000
105.9100 116.0000
105.9200 106.0000
105.9300 112.0000
105.9400 101.0000
105.9500 127.0000
105.9600 134.0000
105.9700 111.0000
105.9800 120.0000
105.9900 101.0000
106.0000 121.0000
106.0100 107.0000
106.0200 121.0000
106.0300 119.0000
106.0400 104.0000
106.0500 118.0000
106.0600 115.0000
106.0700 106.0000
106.0800 103.0000
106.0900 110.0000
106.1000 114.0000
106.1100 117.0000
106.1200 113.0000
106.1300 96.0000
106.1400 116.0000
106.1500 133.0000
106.1600 122.0000
106.1700 115.0000
106.1800 102.0000
106.1900 123.0000
106.2000 101.0000
106.2100 103.0000
106.2200 127.0000
106.2300 118.0000
106.2400 109.0000
106.2500 108.0000
106.2600 118.0000
106.2700 101.0000
106.2800 112.0000
106.2900 120.0000
106.3000 126.0000
106.3100 96.0000
106.3200 106.0000
106.3300 106.0000
106.3400 108.0000
106.3500 102.0000
106.3600 122.0000
106.3700 119.0000
106.3800 112.0000
106.3900 124.0000
106.4000 119.0000
106.4100 102.0000
106.4200 108.0000
106.4300 117.0000
106.4400 100.0000
106.4500 108.0000
106.4600 109.0000
106.4700 114.0000
106.4800 99.0000
106.4900 109.0000
106.5000 97.0000
106.5100 90.0000
106.5200 112.0000
106.5300 91.0000
106.5400 124.0000
106.5500 104.0000
106.5600 106.0000
106.5700 110.0000
106.5800 102.0000
106.5900 106.0000
106.6000 127.0000
106.6100 126.0000
106.6200 114.0000
106.6300 115.0000
106.6400 104.0000
106.6500 127.0000
106.6600 131.0000
106.6700 119.0000
106.6800 118.0000
106.6900 109.0000
106.7000 115.0000
106.7100 118.0000
106.7200 103.0000
106.7300 113.0000
106.7400 112.0000
106.7500 94.0000
106.7600 97.0000
106.7700 111.0000
106.7800 102.0000
106.7900 82.0000
106.8000 119.0000
106.8100 116.0000
106.8200 101.0000
106.8300 106.0000
106.8400 119.0000
106.8500 127.0000
106.8600 99.0000
106.8700 94.0000
106.8800 85.0000
106.8900 100.0000
106.9000 101.0000
106.9100 117.0000
106.9200 93.0000
106.9300 107.0000
106.9400 117.0000
106.9500 105.0000
106.9600 118.0000
106.9700 119.0000
106.9800 91.0000
106.9900 115.0000
107.0000 104.0000
107.0100 112.0000
107.0200 111.0000
107.0300 97.0000
107.0400 113.0000
107.0500 108.0000
107.0600 120.0000
107.0700 110.0000
107.0800 121.0000
107.0900 109.0000
107.1000 103.0000
107.1100 104.0000
107.1200 115.0000
107.1300 103.0000
107.1400 99.0000
107.1500 103.0000
107.1600 113.0000
107.1700 102.0000
107.1800 100.0000
107.1900 95.0000
107.2000 105.0000
107.2100 116.0000
107.2200 116.0000
107.2300 105.0000
107.2400 115.0000
107.2500 106.0000
107.2600 100.0000
107.2700 103.0000
107.2800 115.0000
107.2900 103.0000
107.3000 99.0000
107.3100 102.0000
107.3200 123.0000
107.3300 129.0000
107.3400 101.0000
107.3500 111.0000
107.3600 106.0000
107.3700 108.0000
107.3800 104.0000
107.3900 96.0000
107.4000 94.0000
107.4100 104.0000
107.4200 108.0000
107.4300 105.0000
107.4400 114.0000
107.4500 113.0000
107.4600 106.0000
107.4700 97.0000
107.4800 105.0000
107.4900 105.0000
107.5000 117.0000
107.5100 111.0000
107.5200 100.0000
107.5300 110.0000
107.5400 111.0000
107.5500 109.0000
107.5600 116.0000
107.5700 99.0000
107.5800 119.0000
107.5900 116.0000
107.6000 95.0000
107.6100 113.0000
107.6200 115.0000
107.6300 109.0000
107.6400 96.0000
107.6500 98.0000
107.6600 113.0000
107.6700 111.0000
107.6800 107.0000
107.6900 102.0000
107.7000 120.0000
107.7100 107.0000
107.7200 115.0000
107.7300 92.0000
107.7400 110.0000
107.7500 85.0000
107.7600 101.0000
107.7700 97.0000
107.7800 108.0000
107.7900 112.0000
107.8000 94.0000
107.8100 95.0000
107.8200 97.0000
107.8300 91.0000
107.8400 100.0000
107.8500 116.0000
107.8600 107.0000
107.8700 99.0000
107.8800 88.0000
107.8900 116.0000
107.9000 102.0000
107.9100 101.0000
107.9200 103.0000
107.9300 88.0000
107.9400 107.0000
107.9500 102.0000
107.9600 114.0000
107.9700 96.0000
107.9800 93.0000
107.9900 93.0000
108.0000 100.0000
108.0100 92.0000
108.0200 119.0000
108.0300 102.0000
108.0400 83.0000
108.0500 118.0000
108.0600 101.0000
108.0700 108.0000
108.0800 113.0000
108.0900 89.0000
108.1000 107.0000
108.1100 92.0000
108.1200 101.0000
108.1300 107.0000
108.1400 108.0000
108.1500 112.0000
108.1600 115.0000
108.1700 108.0000
108.1800 99.0000
108.1900 108.0000
108.2000 101.0000
108.2100 116.0000
108.2200 107.0000
108.2300 98.0000
108.2400 91.0000
108.2500 104.0000
108.2600 112.0000
108.2700 103.0000
108.2800 97.0000
108.2900 85.0000
108.3000 105.0000
108.3100 96.0000
108.3200 97.0000
108.3300 94.0000
108.3400 100.0000
108.3500 100.0000
108.3600 95.0000
108.3700 111.0000
108.3800 101.0000
108.3900 99.0000
108.4000 105.0000
108.4100 105.0000
108.4200 98.0000
108.4300 117.0000
108.4400 100.0000
108.4500 104.0000
108.4600 98.0000
108.4700 102.0000
108.4800 100.0000
108.4900 100.0000
108.5000 99.0000
108.5100 116.0000
108.5200 101.0000
108.5300 90.0000
108.5400 97.0000
108.5500 90.0000
108.5600 74.0000
108.5700 94.0000
108.5800 110.0000
108.5900 98.0000
108.6000 111.0000
108.6100 98.0000
108.6200 97.0000
108.6300 107.0000
108.6400 109.0000
108.6500 96.0000
108.6600 94.0000
108.6700 94.0000
108.6800 105.0000
108.6900 99.0000
108.7000 97.0000
108.7100 91.0000
108.7200 114.0000
108.7300 84.0000
108.7400 114.0000
108.7500 101.0000
108.7600 108.0000
108.7700 97.0000
108.7800 112.0000
108.7900 103.0000
108.8000 107.0000
108.8100 99.0000
108.8200 95.0000
108.8300 93.0000
108.8400 95.0000
108.8500 98.0000
108.8600 112.0000
108.8700 119.0000
108.8800 107.0000
108.8900 88.0000
108.9000 111.0000
108.9100 108.0000
108.9200 85.0000
108.9300 91.0000
108.9400 110.0000
108.9500 99.0000
108.9600 90.0000
108.9700 106.0000
108.9800 86.0000
108.9900 111.0000
109.0000 123.0000
109.0100 92.0000
109.0200 91.0000
109.0300 111.0000
109.0400 114.0000
109.0500 108.0000
109.0600 78.0000
109.0700 99.0000
109.0800 106.0000
109.0900 100.0000
109.1000 103.0000
109.1100 106.0000
109.1200 88.0000
109.1300 96.0000
109.1400 100.0000
109.1500 108.0000
109.1600 110.0000
109.1700 107.0000
109.1800 103.0000
109.1900 106.0000
109.2000 111.0000
109.2100 96.0000
109.2200 112.0000
109.2300 95.0000
109.2400 102.0000
109.2500 103.0000
109.2600 111.0000
109.2700 102.0000
109.2800 114.0000
109.2900 96.0000
109.3000 91.0000
109.3100 116.0000
109.3200 108.0000
109.3300 93.0000
109.3400 116.0000
109.3500 103.0000
109.3600 103.0000
109.3700 102.0000
109.3800 106.0000
109.3900 113.0000
109.4000 95.0000
109.4100 77.0000
109.4200 104.0000
109.4300 118.0000
109.4400 84.0000
109.4500 103.0000
109.4600 115.0000
109.4700 115.0000
109.4800 86.0000
109.4900 105.0000
109.5000 107.0000
109.5100 97.0000
109.5200 103.0000
109.5300 106.0000
109.5400 105.0000
109.5500 110.0000
109.5600 93.0000
109.5700 106.0000
109.5800 106.0000
109.5900 105.0000
109.6000 99.0000
109.6100 101.0000
109.6200 119.0000
109.6300 123.0000
109.6400 107.0000
109.6500 99.0000
109.6600 97.0000
109.6700 115.0000
109.6800 113.0000
109.6900 98.0000
109.7000 102.0000
109.7100 112.0000
109.7200 109.0000
109.7300 109.0000
109.7400 91.0000
109.7500 105.0000
109.7600 104.0000
109.7700 108.0000
109.7800 110.0000
109.7900 98.0000
109.8000 99.0000
109.8100 111.0000
109.8200 100.0000
109.8300 104.0000
109.8400 97.0000
109.8500 115.0000
109.8600 87.0000
109.8700 92.0000
109.8800 103.0000
109.8900 94.0000
109.9000 109.0000
109.9100 95.0000
109.9200 104.0000
109.9300 91.0000
109.9400 92.0000
109.9500 95.0000
109.9600 86.0000
109.9700 116.0000
109.9800 105.0000
109.9900 102.0000
110.0000 104.0000
110.0100 107.0000
110.0200 97.0000
110.0300 104.0000
110.0400 91.0000
110.0500 109.0000
110.0600 111.0000
110.0700 111.0000
110.0800 93.0000
110.0900 120.0000
110.1000 112.0000
110.1100 97.0000
110.1200 126.0000
110.1300 119.0000
110.1400 101.0000
110.1500 103.0000
110.1600 112.0000
110.1700 108.0000
110.1800 111.0000
110.1900 104.0000
110.2000 108.0000
110.2100 103.0000
110.2200 99.0000
110.2300 106.0000
110.2400 111.0000
110.2500 94.0000
110.2600 96.0000
110.2700 102.0000
110.2800 122.0000
110.2900 98.0000
110.3000 101.0000
110.3100 86.0000
110.3200 113.0000
110.3300 97.0000
110.3400 98.0000
110.3500 91.0000
110.3600 101.0000
110.3700 121.0000
110.3800 113.0000
110.3900 86.0000
110.4000 100.0000
110.4100 118.0000
110.4200 106.0000
110.4300 102.0000
110.4400 105.0000
110.4500 94.0000
110.4600 103.0000
110.4700 105.0000
110.4800 113.0000
110.4900 95.0000
110.5000 113.0000
110.5100 108.0000
110.5200 120.0000
110.5300 110.0000
110.5400 111.0000
110.5500 124.0000
110.5600 121.0000
110.5700 100.0000
110.5800 115.0000
110.5900 96.0000
110.6000 98.0000
110.6100 114.0000
110.6200 110.0000
110.6300 118.0000
110.6400 111.0000
110.6500 100.0000
110.6600 118.0000
110.6700 102.0000
110.6800 120.0000
110.6900 122.0000
110.7000 111.0000
110.7100 98.0000
110.7200 109.0000
110.7300 106.0000
110.7400 105.0000
110.7500 108.0000
110.7600 140.0000
110.7700 134.0000
110.7800 124.0000
110.7900 119.0000
110.8000 97.0000
110.8100 109.0000
110.8200 112.0000
110.8300 130.0000
110.8400 123.0000
110.8500 113.0000
110.8600 117.0000
110.8700 116.0000
110.8800 127.0000
110.8900 116.0000
110.9000 117.0000
110.9100 122.0000
110.9200 138.0000
110.9300 112.0000
110.9400 119.0000
110.9500 121.0000
110.9600 126.0000
110.9700 124.0000
110.9800 121.0000
110.9900 123.0000
111.0000 117.0000
111.0100 112.0000
111.0200 137.0000
111.0300 107.0000
111.0400 124.0000
111.0500 122.0000
111.0600 110.0000
111.0700 144.0000
111.0800 139.0000
111.0900 134.0000
111.1000 119.0000
111.1100 128.0000
111.1200 128.0000
111.1300 143.0000
111.1400 106.0000
111.1500 112.0000
111.1600 130.0000
111.1700 136.0000
111.1800 135.0000
111.1900 140.0000
111.2000 128.0000
111.2100 149.0000
111.2200 152.0000
111.2300 150.0000
111.2400 160.0000
111.2500 155.0000
111.2600 128.0000
111.2700 143.0000
111.2800 139.0000
111.2900 120.0000
111.3000 144.0000
111.3100 129.0000
111.3200 170.0000
111.3300 135.0000
111.3400 136.0000
111.3500 146.0000
111.3600 140.0000
111.3700 157.0000
111.3800 164.0000
111.3900 151.0000
111.4000 151.0000
111.4100 154.0000
111.4200 154.0000
111.4300 174.0000
111.4400 150.0000
111.4500 161.0000
111.4600 159.0000
111.4700 174.0000
111.4800 149.0000
111.4900 150.0000
111.5000 169.0000
111.5100 172.0000
111.5200 162.0000
111.5300 177.0000
111.5400 157.0000
111.5500 167.0000
111.5600 161.0000
111.5700 150.0000
111.5800 177.0000
111.5900 167.0000
111.6000 183.0000
111.6100 164.0000
111.6200 161.0000
111.6300 173.0000
111.6400 163.0000
111.6500 165.0000
111.6600 166.0000
111.6700 178.0000
111.6800 170.0000
111.6900 190.0000
111.7000 185.0000
111.7100 173.0000
111.7200 196.0000
111.7300 190.0000
111.7400 191.0000
111.7500 211.0000
111.7600 202.0000
111.7700 184.0000
111.7800 190.0000
111.7900 186.0000
111.8000 183.0000
111.8100 187.0000
111.8200 190.0000
111.8300 181.0000
111.8400 189.0000
111.8500 195.0000
111.8600 196.0000
111.8700 184.0000
111.8800 180.0000
111.8900 214.0000
111.9000 185.0000
111.9100 202.0000
111.9200 209.0000
111.9300 209.0000
111.9400 206.0000
111.9500 209.0000
111.9600 207.0000
111.9700 213.0000
111.9800 229.0000
111.9900 219.0000
112.0000 223.0000
112.0100 200.0000
112.0200 201.0000
112.0300 186.0000
112.0400 218.0000
112.0500 201.0000
112.0600 218.0000
112.0700 221.0000
112.0800 220.0000
112.0900 226.0000
112.1000 219.0000
112.1100 220.0000
112.1200 214.0000
112.1300 250.0000
112.1400 232.0000
112.1500 200.0000
112.1600 198.0000
112.1700 214.0000
112.1800 230.0000
112.1900 231.0000
112.2000 186.0000
112.2100 244.0000
112.2200 237.0000
112.2300 229.0000
112.2400 198.0000
112.2500 231.0000
112.2600 206.0000
112.2700 208.0000
112.2800 203.0000
112.2900 207.0000
112.3000 226.0000
112.3100 215.0000
112.3200 198.0000
112.3300 222.0000
112.3400 218.0000
112.3500 223.0000
112.3600 229.0000
112.3700 239.0000
112.3800 217.0000
112.3900 226.0000
112.4000 242.0000
112.4100 194.0000
112.4200 243.0000
112.4300 207.0000
112.4400 241.0000
112.4500 210.0000
112.4600 219.0000
112.4700 228.0000
112.4800 237.0000
112.4900 204.0000
112.5000 212.0000
112.5100 220.0000
112.5200 182.0000
112.5300 200.0000
112.5400 226.0000
112.5500 217.0000
112.5600 197.0000
112.5700 236.0000
112.5800 198.0000
112.5900 217.0000
112.6000 222.0000
112.6100 222.0000
112.6200 208.0000
112.6300 193.0000
112.6400 208.0000
112.6500 228.0000
112.6600 218.0000
112.6700 203.0000
112.6800 211.0000
112.6900 194.0000
112.7000 234.0000
112.7100 211.0000
112.7200 190.0000
112.7300 204.0000
112.7400 209.0000
112.7500 203.0000
112.7600 172.0000
112.7700 198.0000
112.7800 188.0000
112.7900 197.0000
112.8000 178.0000
112.8100 186.0000
112.8200 183.0000
112.8300 170.0000
112.8400 192.0000
112.8500 168.0000
112.8600 179.0000
112.8700 179.0000
112.8800 170.0000
112.8900 172.0000
112.9000 166.0000
112.9100 171.0000
112.9200 164.0000
112.9300 198.0000
112.9400 184.0000
112.9500 165.0000
112.9600 163.0000
112.9700 166.0000
112.9800 154.0000
112.9900 161.0000
113.0000 173.0000
113.0100 162.0000
113.0200 171.0000
113.0300 172.0000
113.0400 169.0000
113.0500 176.0000
113.0600 158.0000
113.0700 157.0000
113.0800 147.0000
113.0900 136.0000
113.1000 182.0000
113.1100 168.0000
113.1200 151.0000
113.1300 142.0000
113.1400 145.0000
113.1500 171.0000
113.1600 142.0000
113.1700 134.0000
113.1800 131.0000
113.1900 151.0000
113.2000 159.0000
113.2100 157.0000
113.2200 149.0000
113.2300 147.0000
113.2400 151.0000
113.2500 144.0000
113.2600 167.0000
113.2700 139.0000
113.2800 148.0000
113.2900 154.0000
113.3000 149.0000
113.3100 148.0000
113.3200 143.0000
113.3300 141.0000
113.3400 142.0000
113.3500 127.0000
113.3600 142.0000
113.3700 156.0000
113.3800 151.0000
113.3900 120.0000
113.4000 127.0000
113.4100 138.0000
113.4200 130.0000
113.4300 128.0000
113.4400 117.0000
113.4500 119.0000
113.4600 120.0000
113.4700 123.0000
113.4800 142.0000
113.4900 124.0000
113.5000 135.0000
113.5100 136.0000
113.5200 123.0000
113.5300 121.0000
113.5400 131.0000
113.5500 138.0000
113.5600 109.0000
113.5700 122.0000
113.5800 112.0000
113.5900 145.0000
113.6000 138.0000
113.6100 127.0000
113.6200 139.0000
113.6300 101.0000
113.6400 122.0000
113.6500 124.0000
113.6600 137.0000
113.6700 119.0000
113.6800 131.0000
113.6900 114.0000
113.7000 129.0000
113.7100 129.0000
113.7200 127.0000
113.7300 96.0000
113.7400 102.0000
113.7500 128.0000
113.7600 115.0000
113.7700 110.0000
113.7800 121.0000
113.7900 122.0000
113.8000 132.0000
113.8100 131.0000
113.8200 130.0000
113.8300 132.0000
113.8400 125.0000
113.8500 115.0000
113.8600 124.0000
113.8700 111.0000
113.8800 113.0000
113.8900 119.0000
113.9000 113.0000
113.9100 137.0000
113.9200 112.0000
113.9300 102.0000
113.9400 120.0000
113.9500 118.0000
113.9600 116.0000
113.9700 115.0000
113.9800 109.0000
113.9900 129.0000
114.0000 111.0000
114.0100 117.0000
114.0200 104.0000
114.0300 112.0000
114.0400 117.0000
114.0500 124.0000
114.0600 124.0000
114.0700 113.0000
114.0800 128.0000
114.0900 131.0000
114.1000 120.0000
114.1100 124.0000
114.1200 123.0000
114.1300 119.0000
114.1400 141.0000
114.1500 123.0000
114.1600 113.0000
114.1700 123.0000
114.1800 117.0000
114.1900 102.0000
114.2000 115.0000
114.2100 95.0000
114.2200 120.0000
114.2300 110.0000
114.2400 109.0000
114.2500 106.0000
114.2600 121.0000
114.2700 99.0000
114.2800 95.0000
114.2900 105.0000
114.3000 104.0000
114.3100 109.0000
114.3200 135.0000
114.3300 106.0000
114.3400 114.0000
114.3500 115.0000
114.3600 112.0000
114.3700 101.0000
114.3800 123.0000
114.3900 130.0000
114.4000 92.0000
114.4100 125.0000
114.4200 109.0000
114.4300 114.0000
114.4400 127.0000
114.4500 89.0000
114.4600 100.0000
114.4700 107.0000
114.4800 110.0000
114.4900 131.0000
114.5000 101.0000
114.5100 120.0000
114.5200 98.0000
114.5300 106.0000
114.5400 102.0000
114.5500 116.0000
114.5600 116.0000
114.5700 112.0000
114.5800 99.0000
114.5900 103.0000
114.6000 98.0000
114.6100 100.0000
114.6200 115.0000
114.6300 102.0000
114.6400 113.0000
114.6500 117.0000
114.6600 118.0000
114.6700 108.0000
114.6800 119.0000
114.6900 118.0000
114.7000 115.0000
114.7100 104.0000
114.7200 96.0000
114.7300 87.0000
114.7400 95.0000
114.7500 98.0000
114.7600 99.0000
114.7700 98.0000
114.7800 97.0000
114.7900 110.0000
114.8000 103.0000
114.8100 102.0000
114.8200 89.0000
114.8300 116.0000
114.8400 95.0000
114.8500 92.0000
114.8600 96.0000
114.8700 91.0000
114.8800 88.0000
114.8900 84.0000
114.9000 104.0000
114.9100 97.0000
114.9200 92.0000
114.9300 109.0000
114.9400 114.0000
114.9500 96.0000
114.9600 125.0000
114.9700 100.0000
114.9800 108.0000
114.9900 96.0000
115.0000 93.0000
115.0100 99.0000
115.0200 93.0000
115.0300 102.0000
115.0400 105.0000
115.0500 96.0000
115.0600 101.0000
115.0700 99.0000
115.0800 87.0000
115.0900 95.0000
115.1000 113.0000
115.1100 89.0000
115.1200 87.0000
115.1300 69.0000
115.1400 106.0000
115.1500 111.0000
115.1600 104.0000
115.1700 110.0000
115.1800 106.0000
115.1900 100.0000
115.2000 92.0000
115.2100 98.0000
115.2200 108.0000
115.2300 107.0000
115.2400 119.0000
115.2500 89.0000
115.2600 89.0000
115.2700 96.0000
115.2800 97.0000
115.2900 95.0000
115.3000 92.0000
115.3100 102.0000
115.3200 90.0000
115.3300 94.0000
115.3400 111.0000
115.3500 84.0000
115.3600 91.0000
115.3700 99.0000
115.3800 97.0000
115.3900 94.0000
115.4000 102.0000
115.4100 110.0000
115.4200 93.0000
115.4300 101.0000
115.4400 111.0000
115.4500 120.0000
115.4600 113.0000
115.4700 114.0000
115.4800 113.0000
115.4900 105.0000
115.5000 107.0000
115.5100 84.0000
115.5200 95.0000
115.5300 119.0000
115.5400 101.0000
115.5500 113.0000
115.5600 111.0000
115.5700 94.0000
115.5800 94.0000
115.5900 99.0000
115.6000 109.0000
115.6100 91.0000
115.6200 107.0000
115.6300 106.0000
115.6400 108.0000
115.6500 108.0000
115.6600 98.0000
115.6700 96.0000
115.6800 106.0000
115.6900 117.0000
115.7000 105.0000
115.7100 92.0000
115.7200 92.0000
115.7300 117.0000
115.7400 108.0000
115.7500 104.0000
115.7600 101.0000
115.7700 119.0000
115.7800 88.0000
115.7900 92.0000
115.8000 109.0000
115.8100 108.0000
115.8200 86.0000
115.8300 106.0000
115.8400 106.0000
115.8500 108.0000
115.8600 111.0000
115.8700 112.0000
115.8800 111.0000
115.8900 109.0000
115.9000 118.0000
115.9100 99.0000
115.9200 90.0000
115.9300 103.0000
115.9400 101.0000
115.9500 122.0000
115.9600 102.0000
115.9700 106.0000
115.9800 103.0000
115.9900 92.0000
116.0000 107.0000
116.0100 102.0000
116.0200 95.0000
116.0300 96.0000
116.0400 95.0000
116.0500 97.0000
116.0600 106.0000
116.0700 93.0000
116.0800 100.0000
116.0900 109.0000
116.1000 116.0000
116.1100 104.0000
116.1200 98.0000
116.1300 95.0000
116.1400 88.0000
116.1500 101.0000
116.1600 112.0000
116.1700 100.0000
116.1800 99.0000
116.1900 96.0000
116.2000 109.0000
116.2100 93.0000
116.2200 81.0000
116.2300 102.0000
116.2400 101.0000
116.2500 99.0000
116.2600 98.0000
116.2700 116.0000
116.2800 123.0000
116.2900 105.0000
116.3000 104.0000
116.3100 94.0000
116.3200 81.0000
116.3300 98.0000
116.3400 104.0000
116.3500 70.0000
116.3600 89.0000
116.3700 103.0000
116.3800 99.0000
116.3900 99.0000
116.4000 98.0000
116.4100 86.0000
116.4200 84.0000
116.4300 91.0000
116.4400 103.0000
116.4500 81.0000
116.4600 91.0000
116.4700 91.0000
116.4800 90.0000
116.4900 99.0000
116.5000 94.0000
116.5100 100.0000
116.5200 92.0000
116.5300 95.0000
116.5400 106.0000
116.5500 95.0000
116.5600 96.0000
116.5700 98.0000
116.5800 99.0000
116.5900 96.0000
116.6000 95.0000
116.6100 104.0000
116.6200 82.0000
116.6300 93.0000
116.6400 103.0000
116.6500 81.0000
116.6600 93.0000
116.6700 129.0000
116.6800 104.0000
116.6900 86.0000
116.7000 95.0000
116.7100 104.0000
116.7200 94.0000
116.7300 99.0000
116.7400 112.0000
116.7500 92.0000
116.7600 107.0000
116.7700 97.0000
116.7800 106.0000
116.7900 92.0000
116.8000 92.0000
116.8100 107.0000
116.8200 80.0000
116.8300 87.0000
116.8400 98.0000
116.8500 71.0000
116.8600 88.0000
116.8700 92.0000
116.8800 80.0000
116.8900 93.0000
116.9000 102.0000
116.9100 85.0000
116.9200 92.0000
116.9300 101.0000
116.9400 89.0000
116.9500 80.0000
116.9600 96.0000
116.9700 87.0000
116.9800 98.0000
116.9900 91.0000
117.0000 80.0000
117.0100 86.0000
117.0200 87.0000
117.0300 93.0000
117.0400 89.0000
117.0500 74.0000
117.0600 114.0000
117.0700 78.0000
117.0800 87.0000
117.0900 84.0000
117.1000 91.0000
117.1100 88.0000
117.1200 74.0000
117.1300 81.0000
117.1400 98.0000
117.1500 79.0000
117.1600 91.0000
117.1700 80.0000
117.1800 89.0000
117.1900 97.0000
117.2000 90.0000
117.2100 75.0000
117.2200 81.0000
117.2300 78.0000
117.2400 92.0000
117.2500 74.0000
117.2600 88.0000
117.2700 79.0000
117.2800 83.0000
117.2900 91.0000
117.3000 73.0000
117.3100 76.0000
117.3200 85.0000
117.3300 69.0000
117.3400 84.0000
117.3500 89.0000
117.3600 85.0000
117.3700 92.0000
117.3800 80.0000
117.3900 95.0000
117.4000 84.0000
117.4100 90.0000
117.4200 76.0000
117.4300 79.0000
117.4400 85.0000
117.4500 83.0000
117.4600 92.0000
117.4700 86.0000
117.4800 88.0000
117.4900 75.0000
117.5000 85.0000
117.5100 88.0000
117.5200 86.0000
117.5300 90.0000
117.5400 106.0000
117.5500 76.0000
117.5600 88.0000
117.5700 82.0000
117.5800 83.0000
117.5900 89.0000
117.6000 95.0000
117.6100 85.0000
117.6200 90.0000
117.6300 79.0000
117.6400 84.0000
117.6500 103.0000
117.6600 92.0000
117.6700 96.0000
117.6800 86.0000
117.6900 94.0000
117.7000 87.0000
117.7100 79.0000
117.7200 82.0000
117.7300 85.0000
117.7400 74.0000
117.7500 85.0000
117.7600 75.0000
117.7700 87.0000
117.7800 86.0000
117.7900 85.0000
117.8000 89.0000
117.8100 91.0000
117.8200 89.0000
117.8300 88.0000
117.8400 88.0000
117.8500 106.0000
117.8600 95.0000
117.8700 93.0000
117.8800 91.0000
117.8900 87.0000
117.9000 88.0000
117.9100 88.0000
117.9200 74.0000
117.9300 96.0000
117.9400 99.0000
117.9500 87.0000
117.9600 79.0000
117.9700 93.0000
117.9800 92.0000
117.9900 112.0000
118.0000 87.0000
118.0100 95.0000
118.0200 94.0000
118.0300 76.0000
118.0400 90.0000
118.0500 91.0000
118.0600 81.0000
118.0700 80.0000
118.0800 83.0000
118.0900 81.0000
118.1000 92.0000
118.1100 91.0000
118.1200 83.0000
118.1300 91.0000
118.1400 81.0000
118.1500 92.0000
118.1600 75.0000
118.1700 79.0000
118.1800 97.0000
118.1900 89.0000
118.2000 85.0000
118.2100 94.0000
118.2200 98.0000
118.2300 98.0000
118.2400 111.0000
118.2500 95.0000
118.2600 96.0000
118.2700 88.0000
118.2800 79.0000
118.2900 87.0000
118.3000 86.0000
118.3100 85.0000
118.3200 89.0000
118.3300 96.0000
118.3400 89.0000
118.3500 99.0000
118.3600 97.0000
118.3700 93.0000
118.3800 96.0000
118.3900 94.0000
118.4000 105.0000
118.4100 84.0000
118.4200 82.0000
118.4300 84.0000
118.4400 108.0000
118.4500 86.0000
118.4600 88.0000
118.4700 84.0000
118.4800 86.0000
118.4900 81.0000
118.5000 92.0000
118.5100 92.0000
118.5200 91.0000
118.5300 79.0000
118.5400 93.0000
118.5500 93.0000
118.5600 101.0000
118.5700 83.0000
118.5800 88.0000
118.5900 88.0000
118.6000 88.0000
118.6100 96.0000
118.6200 77.0000
118.6300 94.0000
118.6400 85.0000
118.6500 86.0000
118.6600 111.0000
118.6700 96.0000
118.6800 88.0000
118.6900 69.0000
118.7000 92.0000
118.7100 84.0000
118.7200 91.0000
118.7300 101.0000
118.7400 91.0000
118.7500 96.0000
118.7600 90.0000
118.7700 97.0000
118.7800 108.0000
118.7900 94.0000
118.8000 87.0000
118.8100 94.0000
118.8200 69.0000
118.8300 89.0000
118.8400 97.0000
118.8500 94.0000
118.8600 76.0000
118.8700 73.0000
118.8800 86.0000
118.8900 83.0000
118.9000 78.0000
118.9100 78.0000
118.9200 85.0000
118.9300 81.0000
118.9400 84.0000
118.9500 70.0000
118.9600 83.0000
118.9700 90.0000
118.9800 86.0000
118.9900 112.0000
119.0000 91.0000
119.0100 89.0000
119.0200 104.0000
119.0300 85.0000
119.0400 84.0000
119.0500 77.0000
119.0600 88.0000
119.0700 87.0000
119.0800 82.0000
119.0900 96.0000
119.1000 100.0000
119.1100 84.0000
119.1200 79.0000
119.1300 88.0000
119.1400 95.0000
119.1500 72.0000
119.1600 89.0000
119.1700 78.0000
119.1800 80.0000
119.1900 88.0000
119.2000 91.0000
119.2100 79.0000
119.2200 96.0000
119.2300 81.0000
119.2400 87.0000
119.2500 87.0000
119.2600 93.0000
119.2700 80.0000
119.2800 89.0000
119.2900 98.0000
119.3000 99.0000
119.3100 79.0000
119.3200 90.0000
119.3300 88.0000
119.3400 86.0000
119.3500 83.0000
119.3600 83.0000
119.3700 76.0000
119.3800 96.0000
119.3900 85.0000
119.4000 111.0000
119.4100 98.0000
119.4200 78.0000
119.4300 98.0000
119.4400 105.0000
119.4500 82.0000
119.4600 91.0000
119.4700 84.0000
119.4800 85.0000
119.4900 98.0000
119.5000 85.0000
119.5100 82.0000
119.5200 84.0000
119.5300 89.0000
119.5400 81.0000
119.5500 74.0000
119.5600 92.0000
119.5700 97.0000
119.5800 93.0000
119.5900 99.0000
119.6000 95.0000
119.6100 75.0000
119.6200 79.0000
119.6300 91.0000
119.6400 79.0000
119.6500 97.0000
119.6600 81.0000
119.6700 96.0000
119.6800 88.0000
119.6900 94.0000
119.7000 89.0000
119.7100 87.0000
119.7200 91.0000
119.7300 88.0000
119.7400 95.0000
119.7500 87.0000
119.7600 95.0000
119.7700 104.0000
119.7800 88.0000
119.7900 79.0000
119.8000 86.0000
119.8100 87.0000
119.8200 85.0000
119.8300 93.0000
119.8400 76.0000
119.8500 82.0000
119.8600 96.0000
119.8700 87.0000
119.8800 89.0000
119.8900 94.0000
119.9000 110.0000
119.9100 77.0000
119.9200 97.0000
119.9300 76.0000
119.9400 87.0000
119.9500 102.0000
119.9600 78.0000
119.9700 91.0000
119.9800 107.0000
119.9900 88.0000
120.0000 95.0000
